[Header]
Application Name	LabSolutions
Version	5.73
Data File Name	C:\LabSolutions\Data\Project1\stephen\2016-01-04\81.gcd
Output Date	1/5/2016
Output Time	4:51:44 PM

[Configuration]
Instrument Name	WEISSTA-PC-Instrument1
Instrument #	1
Line #	1
# of Detectors	1
Detector ID	DET#2
Detector Name	DFID1
# of Channels	1

[Chromatogram (Ch1)]
Interval(msec)	40
# of Points	9600
Start Time(min)	0.000
End Time(min)	6.400
R.Time (min)	Intensity
0.00033	-31
0.00100	-31
0.00167	-31
0.00233	-31
0.00300	-31
0.00367	-31
0.00433	-31
0.00500	-31
0.00567	-30
0.00633	-30
0.00700	-30
0.00767	-29
0.00833	-29
0.00900	-28
0.00967	-28
0.01033	-27
0.01100	-27
0.01167	-26
0.01233	-26
0.01300	-25
0.01367	-25
0.01433	-24
0.01500	-24
0.01567	-24
0.01633	-24
0.01700	-24
0.01767	-24
0.01833	-24
0.01900	-25
0.01967	-25
0.02033	-26
0.02100	-26
0.02167	-27
0.02233	-28
0.02300	-29
0.02367	-30
0.02433	-31
0.02500	-32
0.02567	-33
0.02633	-34
0.02700	-35
0.02767	-37
0.02833	-38
0.02900	-39
0.02967	-40
0.03033	-41
0.03100	-42
0.03167	-43
0.03233	-44
0.03300	-45
0.03367	-46
0.03433	-47
0.03500	-48
0.03567	-49
0.03633	-50
0.03700	-50
0.03767	-51
0.03833	-52
0.03900	-52
0.03967	-53
0.04033	-53
0.04100	-54
0.04167	-54
0.04233	-55
0.04300	-55
0.04367	-55
0.04433	-56
0.04500	-56
0.04567	-57
0.04633	-57
0.04700	-57
0.04767	-57
0.04833	-58
0.04900	-58
0.04967	-58
0.05033	-58
0.05100	-59
0.05167	-59
0.05233	-59
0.05300	-59
0.05367	-59
0.05433	-59
0.05500	-60
0.05567	-60
0.05633	-60
0.05700	-60
0.05767	-60
0.05833	-60
0.05900	-60
0.05967	-60
0.06033	-60
0.06100	-60
0.06167	-60
0.06233	-60
0.06300	-60
0.06367	-60
0.06433	-61
0.06500	-61
0.06567	-61
0.06633	-61
0.06700	-61
0.06767	-61
0.06833	-61
0.06900	-61
0.06967	-61
0.07033	-61
0.07100	-62
0.07167	-62
0.07233	-62
0.07300	-62
0.07367	-62
0.07433	-62
0.07500	-62
0.07567	-62
0.07633	-63
0.07700	-63
0.07767	-63
0.07833	-63
0.07900	-63
0.07967	-63
0.08033	-63
0.08100	-63
0.08167	-63
0.08233	-64
0.08300	-64
0.08367	-64
0.08433	-63
0.08500	-59
0.08567	-50
0.08633	-36
0.08700	-10
0.08767	35
0.08833	112
0.08900	217
0.08967	367
0.09033	569
0.09100	848
0.09167	1201
0.09233	1616
0.09300	2122
0.09367	2745
0.09433	3469
0.09500	4286
0.09567	5192
0.09633	6152
0.09700	7169
0.09767	8270
0.09833	9445
0.09900	10717
0.09967	12063
0.10033	13468
0.10100	14948
0.10167	16490
0.10233	18085
0.10300	19714
0.10367	21376
0.10433	23056
0.10500	24735
0.10567	26473
0.10633	28273
0.10700	30059
0.10767	31859
0.10833	33626
0.10900	35317
0.10967	36971
0.11033	38580
0.11100	40194
0.11167	41733
0.11233	43190
0.11300	44612
0.11367	45994
0.11433	47332
0.11500	48623
0.11567	49840
0.11633	50996
0.11700	52114
0.11767	53181
0.11833	54217
0.11900	55224
0.11967	56154
0.12033	57016
0.12100	57834
0.12167	58628
0.12233	59380
0.12300	60069
0.12367	60674
0.12433	61230
0.12500	61746
0.12567	62166
0.12633	62505
0.12700	62756
0.12767	62921
0.12833	63006
0.12900	63010
0.12967	62945
0.13033	62872
0.13100	63098
0.13167	64822
0.13233	71524
0.13300	91819
0.13367	142880
0.13433	256012
0.13500	473989
0.13567	845882
0.13633	1417605
0.13700	2228732
0.13767	3307112
0.13833	4671007
0.13900	6329047
0.13967	8284311
0.14033	10534192
0.14100	13074234
0.14167	15894356
0.14233	18974511
0.14300	22300203
0.14367	25881872
0.14433	29731925
0.14500	33847700
0.14567	38214313
0.14633	42810144
0.14700	47607485
0.14767	52577204
0.14833	57691161
0.14900	62923820
0.14967	68252328
0.15033	73655917
0.15100	79115733
0.15167	84614507
0.15233	90136584
0.15300	95667929
0.15367	101195889
0.15433	106708162
0.15500	112193268
0.15567	117640702
0.15633	123041141
0.15700	128386056
0.15767	133667737
0.15833	138878001
0.15900	144009391
0.15967	149054972
0.16033	154008899
0.16100	158865554
0.16167	163619403
0.16233	168265322
0.16300	172798717
0.16367	177215475
0.16433	181511754
0.16500	185683680
0.16567	189727557
0.16633	193639823
0.16700	197417374
0.16767	201056818
0.16833	204555113
0.16900	207909123
0.16967	211115904
0.17033	214171870
0.17100	217073670
0.17167	219816930
0.17233	222397913
0.17300	224812707
0.17367	227057646
0.17433	229128617
0.17500	231022172
0.17567	232735468
0.17633	234266537
0.17700	235614304
0.17767	236778505
0.17833	237759669
0.17900	238558866
0.17967	239177973
0.18033	239619300
0.18100	239885735
0.18167	239980565
0.18233	239907657
0.18300	239671172
0.18367	239275827
0.18433	238726429
0.18500	238028104
0.18567	237185835
0.18633	236204865
0.18700	235090369
0.18767	233847801
0.18833	232482637
0.18900	231000497
0.18967	229406844
0.19033	227707126
0.19100	225906710
0.19167	224010973
0.19233	222025331
0.19300	219955341
0.19367	217806524
0.19433	215584476
0.19500	213294772
0.19567	210942799
0.19633	208533900
0.19700	206073588
0.19767	203567744
0.19833	201022104
0.19900	198441601
0.19967	195830076
0.20033	193190624
0.20100	190525808
0.20167	187838034
0.20233	185129627
0.20300	182403075
0.20367	179660884
0.20433	176905710
0.20500	174140265
0.20567	171367308
0.20633	168589544
0.20700	165809645
0.20767	163030220
0.20833	160253810
0.20900	157482893
0.20967	154719855
0.21033	151967000
0.21100	149226506
0.21167	146500464
0.21233	143790833
0.21300	141099468
0.21367	138428094
0.21433	135778349
0.21500	133151750
0.21567	130549739
0.21633	127973632
0.21700	125424641
0.21767	122903855
0.21833	120412270
0.21900	117950790
0.21967	115520242
0.22033	113121349
0.22100	110754745
0.22167	108420992
0.22233	106120583
0.22300	103853943
0.22367	101621421
0.22433	99423298
0.22500	97259800
0.22567	95131110
0.22633	93037352
0.22700	90978599
0.22767	88954868
0.22833	86966136
0.22900	85012334
0.22967	83093359
0.23033	81209073
0.23100	79359302
0.23167	77543835
0.23233	75762430
0.23300	74014808
0.23367	72300678
0.23433	70619724
0.23500	68971614
0.23567	67356000
0.23633	65772517
0.23700	64220783
0.23767	62700400
0.23833	61210962
0.23900	59752053
0.23967	58323253
0.24033	56924135
0.24100	55554266
0.24167	54213202
0.24233	52900505
0.24300	51615730
0.24367	50358441
0.24433	49128197
0.24500	47924560
0.24567	46747087
0.24633	45595339
0.24700	44468874
0.24767	43367258
0.24833	42290055
0.24900	41236834
0.24967	40207165
0.25033	39200623
0.25100	38216791
0.25167	37255254
0.25233	36315602
0.25300	35397425
0.25367	34500322
0.25433	33623897
0.25500	32767760
0.25567	31931525
0.25633	31114810
0.25700	30317238
0.25767	29538441
0.25833	28778054
0.25900	28035721
0.25967	27311084
0.26033	26603794
0.26100	25913505
0.26167	25239876
0.26233	24582571
0.26300	23941260
0.26367	23315615
0.26433	22705316
0.26500	22110044
0.26567	21529489
0.26633	20963341
0.26700	20411297
0.26767	19873062
0.26833	19348342
0.26900	18836851
0.26967	18338307
0.27033	17852434
0.27100	17378960
0.27167	16917618
0.27233	16468146
0.27300	16030286
0.27367	15603787
0.27433	15188403
0.27500	14783893
0.27567	14390023
0.27633	14006561
0.27700	13633284
0.27767	13269974
0.27833	12916417
0.27900	12572406
0.27967	12237738
0.28033	11912216
0.28100	11595646
0.28167	11287843
0.28233	10988623
0.28300	10697810
0.28367	10415233
0.28433	10140725
0.28500	9874126
0.28567	9615281
0.28633	9364043
0.28700	9120275
0.28767	8883851
0.28833	8654654
0.28900	8432580
0.28967	8217540
0.29033	8009457
0.29100	7808259
0.29167	7613889
0.29233	7426292
0.29300	7245416
0.29367	7071202
0.29433	6903583
0.29500	6742476
0.29567	6587800
0.29633	6439452
0.29700	6297322
0.29767	6161280
0.29833	6031187
0.29900	5906889
0.29967	5788221
0.30033	5675012
0.30100	5567091
0.30167	5464278
0.30233	5366393
0.30300	5273250
0.30367	5184657
0.30433	5100425
0.30500	5020367
0.30567	4944300
0.30633	4872044
0.30700	4803418
0.30767	4738248
0.30833	4676359
0.30900	4617582
0.30967	4561756
0.31033	4508723
0.31100	4458334
0.31167	4410447
0.31233	4364927
0.31300	4321651
0.31367	4280509
0.31433	4241399
0.31500	4204222
0.31567	4168885
0.31633	4135295
0.31700	4103359
0.31767	4072977
0.31833	4044045
0.31900	4016457
0.31967	3990099
0.32033	3964859
0.32100	3940625
0.32167	3917286
0.32233	3894734
0.32300	3872858
0.32367	3851545
0.32433	3830679
0.32500	3810129
0.32567	3789759
0.32633	3769424
0.32700	3748975
0.32767	3728265
0.32833	3707147
0.32900	3685477
0.32967	3663119
0.33033	3639948
0.33100	3615851
0.33167	3590730
0.33233	3564494
0.33300	3537074
0.33367	3508414
0.33433	3478478
0.33500	3447247
0.33567	3414720
0.33633	3380913
0.33700	3345858
0.33767	3309601
0.33833	3272199
0.33900	3233719
0.33967	3194237
0.34033	3153831
0.34100	3112584
0.34167	3070580
0.34233	3027902
0.34300	2984633
0.34367	2940855
0.34433	2896648
0.34500	2852088
0.34567	2807248
0.34633	2762200
0.34700	2717010
0.34767	2671743
0.34833	2626460
0.34900	2581219
0.34967	2536072
0.35033	2491070
0.35100	2446258
0.35167	2401681
0.35233	2357378
0.35300	2313387
0.35367	2269742
0.35433	2226475
0.35500	2183615
0.35567	2141187
0.35633	2099216
0.35700	2057724
0.35767	2016729
0.35833	1976249
0.35900	1936301
0.35967	1896897
0.36033	1858050
0.36100	1819771
0.36167	1782068
0.36233	1744949
0.36300	1708419
0.36367	1672484
0.36433	1637149
0.36500	1602417
0.36567	1568291
0.36633	1534773
0.36700	1501864
0.36767	1469564
0.36833	1437871
0.36900	1406784
0.36967	1376298
0.37033	1346412
0.37100	1317120
0.37167	1288418
0.37233	1260300
0.37300	1232763
0.37367	1205799
0.37433	1179402
0.37500	1153567
0.37567	1128285
0.37633	1103551
0.37700	1079356
0.37767	1055694
0.37833	1032557
0.37900	1009936
0.37967	987823
0.38033	966210
0.38100	945088
0.38167	924447
0.38233	904281
0.38300	884580
0.38367	865340
0.38433	846554
0.38500	828215
0.38567	810318
0.38633	792855
0.38700	775820
0.38767	759207
0.38833	743009
0.38900	727221
0.38967	711838
0.39033	696854
0.39100	682266
0.39167	668072
0.39233	654269
0.39300	640857
0.39367	627833
0.39433	615196
0.39500	602939
0.39567	591055
0.39633	579534
0.39700	568366
0.39767	557542
0.39833	547053
0.39900	536887
0.39967	527036
0.40033	517488
0.40100	508234
0.40167	499262
0.40233	490564
0.40300	482130
0.40367	473950
0.40433	466015
0.40500	458317
0.40567	450848
0.40633	443599
0.40700	436563
0.40767	429733
0.40833	423100
0.40900	416658
0.40967	410401
0.41033	404322
0.41100	398415
0.41167	392675
0.41233	387095
0.41300	381670
0.41367	376396
0.41433	371266
0.41500	366276
0.41567	361422
0.41633	356698
0.41700	352100
0.41767	347624
0.41833	343266
0.41900	339020
0.41967	334883
0.42033	330852
0.42100	326922
0.42167	323090
0.42233	319353
0.42300	315707
0.42367	312149
0.42433	308676
0.42500	305285
0.42567	301973
0.42633	298737
0.42700	295576
0.42767	292486
0.42833	289464
0.42900	286508
0.42967	283616
0.43033	280786
0.43100	278015
0.43167	275302
0.43233	272644
0.43300	270040
0.43367	267488
0.43433	264986
0.43500	262532
0.43567	260125
0.43633	257763
0.43700	255445
0.43767	253169
0.43833	250934
0.43900	248740
0.43967	246583
0.44033	244464
0.44100	242380
0.44167	240332
0.44233	238317
0.44300	236334
0.44367	234383
0.44433	232464
0.44500	230574
0.44567	228713
0.44633	226879
0.44700	225073
0.44767	223292
0.44833	221537
0.44900	219806
0.44967	218098
0.45033	216413
0.45100	214751
0.45167	213110
0.45233	211489
0.45300	209889
0.45367	208308
0.45433	206747
0.45500	205204
0.45567	203679
0.45633	202172
0.45700	200682
0.45767	199209
0.45833	197752
0.45900	196312
0.45967	194888
0.46033	193480
0.46100	192088
0.46167	190711
0.46233	189349
0.46300	188002
0.46367	186671
0.46433	185354
0.46500	184053
0.46567	182767
0.46633	181495
0.46700	180238
0.46767	178996
0.46833	177768
0.46900	176555
0.46967	175357
0.47033	174172
0.47100	173001
0.47167	171843
0.47233	170699
0.47300	169569
0.47367	168451
0.47433	167346
0.47500	166253
0.47567	165173
0.47633	164105
0.47700	163048
0.47767	162002
0.47833	160968
0.47900	159945
0.47967	158932
0.48033	157930
0.48100	156937
0.48167	155955
0.48233	154982
0.48300	154019
0.48367	153065
0.48433	152120
0.48500	151184
0.48567	150257
0.48633	149338
0.48700	148428
0.48767	147526
0.48833	146632
0.48900	145745
0.48967	144867
0.49033	143996
0.49100	143132
0.49167	142275
0.49233	141426
0.49300	140583
0.49367	139748
0.49433	138919
0.49500	138097
0.49567	137281
0.49633	136472
0.49700	135670
0.49767	134873
0.49833	134083
0.49900	133298
0.49967	132520
0.50033	131747
0.50100	130980
0.50167	130219
0.50233	129463
0.50300	128714
0.50367	127970
0.50433	127231
0.50500	126498
0.50567	125771
0.50633	125050
0.50700	124334
0.50767	123624
0.50833	122919
0.50900	122220
0.50967	121526
0.51033	120838
0.51100	120155
0.51167	119477
0.51233	118804
0.51300	118137
0.51367	117475
0.51433	116818
0.51500	116165
0.51567	115517
0.51633	114874
0.51700	114236
0.51767	113602
0.51833	112973
0.51900	112348
0.51967	111728
0.52033	111112
0.52100	110501
0.52167	109893
0.52233	109291
0.52300	108692
0.52367	108098
0.52433	107508
0.52500	106922
0.52567	106340
0.52633	105762
0.52700	105189
0.52767	104619
0.52833	104054
0.52900	103493
0.52967	102936
0.53033	102382
0.53100	101833
0.53167	101288
0.53233	100747
0.53300	100210
0.53367	99677
0.53433	99147
0.53500	98622
0.53567	98100
0.53633	97582
0.53700	97068
0.53767	96558
0.53833	96052
0.53900	95549
0.53967	95050
0.54033	94555
0.54100	94064
0.54167	93577
0.54233	93093
0.54300	92613
0.54367	92136
0.54433	91663
0.54500	91194
0.54567	90728
0.54633	90266
0.54700	89808
0.54767	89353
0.54833	88902
0.54900	88454
0.54967	88009
0.55033	87568
0.55100	87130
0.55167	86696
0.55233	86265
0.55300	85838
0.55367	85414
0.55433	84993
0.55500	84575
0.55567	84160
0.55633	83749
0.55700	83342
0.55767	82937
0.55833	82536
0.55900	82138
0.55967	81743
0.56033	81351
0.56100	80963
0.56167	80578
0.56233	80197
0.56300	79819
0.56367	79445
0.56433	79074
0.56500	78707
0.56567	78344
0.56633	77985
0.56700	77629
0.56767	77278
0.56833	76930
0.56900	76586
0.56967	76247
0.57033	75912
0.57100	75580
0.57167	75253
0.57233	74930
0.57300	74611
0.57367	74296
0.57433	73984
0.57500	73676
0.57567	73371
0.57633	73070
0.57700	72772
0.57767	72477
0.57833	72184
0.57900	71895
0.57967	71607
0.58033	71322
0.58100	71039
0.58167	70757
0.58233	70478
0.58300	70200
0.58367	69924
0.58433	69650
0.58500	69377
0.58567	69105
0.58633	68835
0.58700	68566
0.58767	68298
0.58833	68031
0.58900	67766
0.58967	67502
0.59033	67239
0.59100	66978
0.59167	66717
0.59233	66458
0.59300	66200
0.59367	65942
0.59433	65686
0.59500	65431
0.59567	65177
0.59633	64924
0.59700	64672
0.59767	64422
0.59833	64172
0.59900	63923
0.59967	63676
0.60033	63429
0.60100	63184
0.60167	62939
0.60233	62696
0.60300	62454
0.60367	62213
0.60433	61973
0.60500	61734
0.60567	61496
0.60633	61260
0.60700	61024
0.60767	60790
0.60833	60557
0.60900	60325
0.60967	60094
0.61033	59864
0.61100	59636
0.61167	59408
0.61233	59182
0.61300	58957
0.61367	58733
0.61433	58510
0.61500	58288
0.61567	58067
0.61633	57847
0.61700	57628
0.61767	57410
0.61833	57194
0.61900	56979
0.61967	56764
0.62033	56551
0.62100	56340
0.62167	56129
0.62233	55920
0.62300	55712
0.62367	55506
0.62433	55301
0.62500	55098
0.62567	54896
0.62633	54697
0.62700	54498
0.62767	54302
0.62833	54107
0.62900	53914
0.62967	53723
0.63033	53533
0.63100	53346
0.63167	53160
0.63233	52976
0.63300	52793
0.63367	52613
0.63433	52434
0.63500	52257
0.63567	52081
0.63633	51907
0.63700	51735
0.63767	51563
0.63833	51393
0.63900	51225
0.63967	51057
0.64033	50891
0.64100	50726
0.64167	50562
0.64233	50398
0.64300	50236
0.64367	50075
0.64433	49915
0.64500	49756
0.64567	49598
0.64633	49441
0.64700	49285
0.64767	49130
0.64833	48976
0.64900	48824
0.64967	48673
0.65033	48524
0.65100	48376
0.65167	48229
0.65233	48084
0.65300	47941
0.65367	47799
0.65433	47659
0.65500	47520
0.65567	47383
0.65633	47247
0.65700	47113
0.65767	46980
0.65833	46849
0.65900	46719
0.65967	46591
0.66033	46463
0.66100	46337
0.66167	46212
0.66233	46088
0.66300	45965
0.66367	45842
0.66433	45721
0.66500	45600
0.66567	45479
0.66633	45360
0.66700	45240
0.66767	45121
0.66833	45003
0.66900	44884
0.66967	44766
0.67033	44648
0.67100	44531
0.67167	44414
0.67233	44297
0.67300	44180
0.67367	44064
0.67433	43948
0.67500	43832
0.67567	43717
0.67633	43602
0.67700	43487
0.67767	43373
0.67833	43259
0.67900	43147
0.67967	43034
0.68033	42923
0.68100	42812
0.68167	42703
0.68233	42594
0.68300	42486
0.68367	42380
0.68433	42276
0.68500	42174
0.68567	42074
0.68633	41977
0.68700	41883
0.68767	41793
0.68833	41708
0.68900	41629
0.68967	41556
0.69033	41492
0.69100	41437
0.69167	41393
0.69233	41361
0.69300	41344
0.69367	41344
0.69433	41362
0.69500	41400
0.69567	41460
0.69633	41543
0.69700	41651
0.69767	41786
0.69833	41948
0.69900	42139
0.69967	42358
0.70033	42606
0.70100	42882
0.70167	43187
0.70233	43518
0.70300	43874
0.70367	44254
0.70433	44655
0.70500	45074
0.70567	45508
0.70633	45955
0.70700	46411
0.70767	46872
0.70833	47335
0.70900	47796
0.70967	48252
0.71033	48700
0.71100	49138
0.71167	49561
0.71233	49968
0.71300	50357
0.71367	50724
0.71433	51068
0.71500	51387
0.71567	51681
0.71633	51948
0.71700	52188
0.71767	52400
0.71833	52586
0.71900	52744
0.71967	52876
0.72033	52982
0.72100	53062
0.72167	53118
0.72233	53150
0.72300	53159
0.72367	53147
0.72433	53113
0.72500	53060
0.72567	52988
0.72633	52899
0.72700	52793
0.72767	52671
0.72833	52535
0.72900	52384
0.72967	52221
0.73033	52046
0.73100	51859
0.73167	51662
0.73233	51456
0.73300	51241
0.73367	51017
0.73433	50786
0.73500	50548
0.73567	50304
0.73633	50054
0.73700	49799
0.73767	49540
0.73833	49276
0.73900	49009
0.73967	48738
0.74033	48465
0.74100	48190
0.74167	47912
0.74233	47634
0.74300	47353
0.74367	47073
0.74433	46791
0.74500	46510
0.74567	46228
0.74633	45947
0.74700	45666
0.74767	45386
0.74833	45107
0.74900	44829
0.74967	44552
0.75033	44277
0.75100	44004
0.75167	43733
0.75233	43464
0.75300	43197
0.75367	42932
0.75433	42670
0.75500	42410
0.75567	42153
0.75633	41899
0.75700	41647
0.75767	41398
0.75833	41153
0.75900	40911
0.75967	40671
0.76033	40435
0.76100	40203
0.76167	39973
0.76233	39748
0.76300	39525
0.76367	39306
0.76433	39091
0.76500	38879
0.76567	38671
0.76633	38466
0.76700	38265
0.76767	38067
0.76833	37873
0.76900	37683
0.76967	37496
0.77033	37312
0.77100	37132
0.77167	36956
0.77233	36783
0.77300	36614
0.77367	36447
0.77433	36284
0.77500	36125
0.77567	35968
0.77633	35814
0.77700	35663
0.77767	35515
0.77833	35370
0.77900	35228
0.77967	35088
0.78033	34950
0.78100	34815
0.78167	34682
0.78233	34552
0.78300	34423
0.78367	34297
0.78433	34173
0.78500	34050
0.78567	33930
0.78633	33811
0.78700	33694
0.78767	33578
0.78833	33464
0.78900	33352
0.78967	33240
0.79033	33130
0.79100	33022
0.79167	32914
0.79233	32808
0.79300	32704
0.79367	32600
0.79433	32498
0.79500	32396
0.79567	32296
0.79633	32197
0.79700	32099
0.79767	32002
0.79833	31906
0.79900	31811
0.79967	31717
0.80033	31624
0.80100	31532
0.80167	31441
0.80233	31350
0.80300	31261
0.80367	31172
0.80433	31085
0.80500	30998
0.80567	30912
0.80633	30826
0.80700	30742
0.80767	30658
0.80833	30575
0.80900	30493
0.80967	30412
0.81033	30331
0.81100	30251
0.81167	30172
0.81233	30093
0.81300	30015
0.81367	29938
0.81433	29862
0.81500	29786
0.81567	29711
0.81633	29637
0.81700	29564
0.81767	29491
0.81833	29419
0.81900	29347
0.81967	29277
0.82033	29207
0.82100	29137
0.82167	29069
0.82233	29000
0.82300	28933
