[Header]
Application Name	LabSolutions
Version	5.73
Data File Name	C:\LabSolutions\Data\Project1\stephen\2016-01-04\84.gcd
Output Date	1/5/2016
Output Time	4:51:45 PM

[Configuration]
Instrument Name	WEISSTA-PC-Instrument1
Instrument #	1
Line #	1
# of Detectors	1
Detector ID	DET#2
Detector Name	DFID1
# of Channels	1

[Chromatogram (Ch1)]
Interval(msec)	40
# of Points	9600
Start Time(min)	0.000
End Time(min)	6.399
R.Time (min)	Intensity
0.00000	34
0.00067	34
0.00133	34
0.00200	34
0.00267	34
0.00333	34
0.00400	34
0.00467	34
0.00533	34
0.00600	34
0.00667	34
0.00733	34
0.00800	33
0.00867	33
0.00933	32
0.01000	31
0.01067	29
0.01133	28
0.01200	26
0.01267	23
0.01333	21
0.01400	18
0.01467	15
0.01533	11
0.01600	7
0.01667	3
0.01733	-1
0.01800	-5
0.01867	-9
0.01933	-14
0.02000	-19
0.02067	-23
0.02133	-28
0.02200	-32
0.02267	-37
0.02333	-42
0.02400	-46
0.02467	-50
0.02533	-54
0.02600	-59
0.02667	-63
0.02733	-66
0.02800	-70
0.02867	-73
0.02933	-77
0.03000	-80
0.03067	-82
0.03133	-85
0.03200	-88
0.03267	-90
0.03333	-92
0.03400	-94
0.03467	-96
0.03533	-98
0.03600	-99
0.03667	-101
0.03733	-102
0.03800	-103
0.03867	-104
0.03933	-105
0.04000	-106
0.04067	-107
0.04133	-107
0.04200	-108
0.04267	-108
0.04333	-108
0.04400	-109
0.04467	-109
0.04533	-109
0.04600	-109
0.04667	-109
0.04733	-109
0.04800	-109
0.04867	-109
0.04933	-109
0.05000	-109
0.05067	-109
0.05133	-109
0.05200	-109
0.05267	-109
0.05333	-109
0.05400	-108
0.05467	-108
0.05533	-108
0.05600	-108
0.05667	-108
0.05733	-108
0.05800	-108
0.05867	-108
0.05933	-108
0.06000	-107
0.06067	-107
0.06133	-107
0.06200	-107
0.06267	-107
0.06333	-107
0.06400	-107
0.06467	-107
0.06533	-107
0.06600	-107
0.06667	-107
0.06733	-107
0.06800	-107
0.06867	-107
0.06933	-107
0.07000	-107
0.07067	-107
0.07133	-107
0.07200	-107
0.07267	-107
0.07333	-107
0.07400	-107
0.07467	-107
0.07533	-107
0.07600	-107
0.07667	-107
0.07733	-107
0.07800	-107
0.07867	-108
0.07933	-108
0.08000	-108
0.08067	-108
0.08133	-108
0.08200	-108
0.08267	-108
0.08333	-108
0.08400	-108
0.08467	-107
0.08533	-101
0.08600	-89
0.08667	-67
0.08733	-31
0.08800	19
0.08867	86
0.08933	185
0.09000	322
0.09067	497
0.09133	730
0.09200	1020
0.09267	1378
0.09333	1804
0.09400	2316
0.09467	2937
0.09533	3660
0.09600	4501
0.09667	5448
0.09733	6543
0.09800	7771
0.09867	9166
0.09933	10685
0.10000	12321
0.10067	14044
0.10133	15868
0.10200	17815
0.10267	19822
0.10333	21810
0.10400	23858
0.10467	26052
0.10533	28279
0.10600	30456
0.10667	32603
0.10733	34765
0.10800	36955
0.10867	39149
0.10933	41283
0.11000	43335
0.11067	45345
0.11133	47362
0.11200	49344
0.11267	51302
0.11333	53226
0.11400	55064
0.11467	56838
0.11533	58620
0.11600	60315
0.11667	61872
0.11733	63333
0.11800	64712
0.11867	65999
0.11933	67246
0.12000	68450
0.12067	69552
0.12133	70533
0.12200	71401
0.12267	72191
0.12333	72923
0.12400	73558
0.12467	74078
0.12533	74500
0.12600	74844
0.12667	75127
0.12733	75338
0.12800	75462
0.12867	75550
0.12933	75576
0.13000	75528
0.13067	75444
0.13133	75514
0.13200	76459
0.13267	80313
0.13333	91892
0.13400	120971
0.13467	185527
0.13533	314744
0.13600	547296
0.13667	925373
0.13733	1489830
0.13800	2276165
0.13867	3312180
0.13933	4616760
0.14000	6200858
0.14067	8068558
0.14133	10219909
0.14200	12652251
0.14267	15360707
0.14333	18334568
0.14400	21554413
0.14467	25006091
0.14533	28698135
0.14600	32641547
0.14667	36834884
0.14733	41264497
0.14800	45910562
0.14867	50748888
0.14933	55752736
0.15000	60895509
0.15067	66152572
0.15133	71501850
0.15200	76923364
0.15267	82399446
0.15333	87913708
0.15400	93450680
0.15467	98996240
0.15533	104537029
0.15600	110060780
0.15667	115556547
0.15733	121014161
0.15800	126423655
0.15867	131776344
0.15933	137064134
0.16000	142279456
0.16067	147414322
0.16133	152461325
0.16200	157413286
0.16267	162263343
0.16333	167004582
0.16400	171630868
0.16467	176136582
0.16533	180516590
0.16600	184765827
0.16667	188879190
0.16733	192851618
0.16800	196678282
0.16867	200354571
0.16933	203876069
0.17000	207238357
0.17067	210437024
0.17133	213467803
0.17200	216325481
0.17267	219005388
0.17333	221503098
0.17400	223815154
0.17467	225938578
0.17533	227871648
0.17600	229613199
0.17667	231163170
0.17733	232522034
0.17800	233691292
0.17867	234672889
0.17933	235469502
0.18000	236084253
0.18067	236520736
0.18133	236782412
0.18200	236873172
0.18267	236797202
0.18333	236558946
0.18400	236163025
0.18467	235614113
0.18533	234917065
0.18600	234076868
0.18667	233098673
0.18733	231987631
0.18800	230749087
0.18867	229388274
0.18933	227910617
0.19000	226321451
0.19067	224626307
0.19133	222830415
0.19200	220939053
0.19267	218957423
0.19333	216890828
0.19400	214744511
0.19467	212523763
0.19533	210233918
0.19600	207880395
0.19667	205468558
0.19733	203003664
0.19800	200490732
0.19867	197934626
0.19933	195340268
0.20000	192712827
0.20067	190057445
0.20133	187378630
0.20200	184679989
0.20267	181964274
0.20333	179233899
0.20400	176491020
0.20467	173737766
0.20533	170976346
0.20600	168209109
0.20667	165438421
0.20733	162666743
0.20800	159896504
0.20867	157130154
0.20933	154370074
0.21000	151618602
0.21067	148877991
0.21133	146150409
0.21200	143437911
0.21267	140742464
0.21333	138065928
0.21400	135410057
0.21467	132776484
0.21533	130166718
0.21600	127582152
0.21667	125024074
0.21733	122493678
0.21800	119992055
0.21867	117520197
0.21933	115078991
0.22000	112669241
0.22067	110291661
0.22133	107946884
0.22200	105635458
0.22267	103357871
0.22333	101114529
0.22400	98905767
0.22467	96731848
0.22533	94592978
0.22600	92489307
0.22667	90420938
0.22733	88387904
0.22800	86390195
0.22867	84427755
0.22933	82500486
0.23000	80608253
0.23067	78750894
0.23133	76928216
0.23200	75139985
0.23267	73385944
0.23333	71665800
0.23400	69979244
0.23467	68325944
0.23533	66705556
0.23600	65117719
0.23667	63562058
0.23733	62038180
0.23800	60545683
0.23867	59084145
0.23933	57653147
0.24000	56252257
0.24067	54881039
0.24133	53539055
0.24200	52225860
0.24267	50941007
0.24333	49684045
0.24400	48454521
0.24467	47251979
0.24533	46075968
0.24600	44926036
0.24667	43801733
0.24733	42702610
0.24800	41628221
0.24867	40578123
0.24933	39551878
0.25000	38549050
0.25067	37569209
0.25133	36611926
0.25200	35676778
0.25267	34763341
0.25333	33871205
0.25400	32999956
0.25467	32149191
0.25533	31318510
0.25600	30507520
0.25667	29715835
0.25733	28943072
0.25800	28188854
0.25867	27452809
0.25933	26734573
0.26000	26033783
0.26067	25350083
0.26133	24683120
0.26200	24032548
0.26267	23398025
0.26333	22779216
0.26400	22175788
0.26467	21587417
0.26533	21013781
0.26600	20454565
0.26667	19909456
0.26733	19378148
0.26800	18860340
0.26867	18355734
0.26933	17864039
0.27000	17384970
0.27067	16918243
0.27133	16463582
0.27200	16020714
0.27267	15589374
0.27333	15169298
0.27400	14760230
0.27467	14361918
0.27533	13974116
0.27600	13596581
0.27667	13229077
0.27733	12871369
0.27800	12523230
0.27867	12184436
0.27933	11854770
0.28000	11534016
0.28067	11221964
0.28133	10918411
0.28200	10623156
0.28267	10336004
0.28333	10056767
0.28400	9785260
0.28467	9521303
0.28533	9264724
0.28600	9015354
0.28667	8773030
0.28733	8537592
0.28800	8308887
0.28867	8086765
0.28933	7871081
0.29000	7661697
0.29067	7458475
0.29133	7261288
0.29200	7070012
0.29267	6884529
0.29333	6704729
0.29400	6530507
0.29467	6361768
0.29533	6198425
0.29600	6040406
0.29667	5887642
0.29733	5740078
0.29800	5597659
0.29867	5460338
0.29933	5328065
0.30000	5200792
0.30067	5078463
0.30133	4961015
0.30200	4848373
0.30267	4740451
0.30333	4637151
0.30400	4538368
0.30467	4443984
0.30533	4353872
0.30600	4267896
0.30667	4185916
0.30733	4107792
0.30800	4033383
0.30867	3962551
0.30933	3895153
0.31000	3831048
0.31067	3770095
0.31133	3712154
0.31200	3657084
0.31267	3604748
0.31333	3555010
0.31400	3507734
0.31467	3462792
0.31533	3420057
0.31600	3379408
0.31667	3340731
0.31733	3303917
0.31800	3268868
0.31867	3235489
0.31933	3203688
0.32000	3173380
0.32067	3144488
0.32133	3116938
0.32200	3090666
0.32267	3065607
0.32333	3041693
0.32400	3018855
0.32467	2997020
0.32533	2976115
0.32600	2956062
0.32667	2936786
0.32733	2918211
0.32800	2900264
0.32867	2882874
0.32933	2865970
0.33000	2849481
0.33067	2833329
0.33133	2817432
0.33200	2801701
0.33267	2786044
0.33333	2770366
0.33400	2754568
0.33467	2738555
0.33533	2722234
0.33600	2705511
0.33667	2688299
0.33733	2670516
0.33800	2652085
0.33867	2632943
0.33933	2613030
0.34000	2592301
0.34067	2570716
0.34133	2548254
0.34200	2524900
0.34267	2500657
0.34333	2475537
0.34400	2449565
0.34467	2422775
0.34533	2395207
0.34600	2366909
0.34667	2337934
0.34733	2308336
0.34800	2278174
0.34867	2247507
0.34933	2216393
0.35000	2184890
0.35067	2153057
0.35133	2120949
0.35200	2088619
0.35267	2056119
0.35333	2023498
0.35400	1990803
0.35467	1958078
0.35533	1925365
0.35600	1892704
0.35667	1860131
0.35733	1827682
0.35800	1795389
0.35867	1763281
0.35933	1731387
0.36000	1699731
0.36067	1668338
0.36133	1637228
0.36200	1606422
0.36267	1575937
0.36333	1545789
0.36400	1515993
0.36467	1486562
0.36533	1457508
0.36600	1428841
0.36667	1400570
0.36733	1372703
0.36800	1345247
0.36867	1318208
0.36933	1291591
0.37000	1265400
0.37067	1239641
0.37133	1214315
0.37200	1189426
0.37267	1164976
0.37333	1140964
0.37400	1117390
0.37467	1094254
0.37533	1071554
0.37600	1049288
0.37667	1027454
0.37733	1006048
0.37800	985068
0.37867	964510
0.37933	944370
0.38000	924643
0.38067	905326
0.38133	886413
0.38200	867900
0.38267	849783
0.38333	832055
0.38400	814713
0.38467	797750
0.38533	781160
0.38600	764937
0.38667	749076
0.38733	733573
0.38800	718423
0.38867	703625
0.38933	689173
0.39000	675064
0.39067	661296
0.39133	647864
0.39200	634765
0.39267	621996
0.39333	609553
0.39400	597434
0.39467	585634
0.39533	574153
0.39600	562986
0.39667	552133
0.39733	541591
0.39800	531360
0.39867	521438
0.39933	511821
0.40000	502503
0.40067	493478
0.40133	484735
0.40200	476265
0.40267	468059
0.40333	460108
0.40400	452401
0.40467	444930
0.40533	437686
0.40600	430659
0.40667	423841
0.40733	417225
0.40800	410802
0.40867	404566
0.40933	398510
0.41000	392627
0.41067	386911
0.41133	381357
0.41200	375958
0.41267	370710
0.41333	365606
0.41400	360643
0.41467	355815
0.41533	351119
0.41600	346548
0.41667	342100
0.41733	337771
0.41800	333555
0.41867	329451
0.41933	325454
0.42000	321561
0.42067	317767
0.42133	314070
0.42200	310467
0.42267	306954
0.42333	303529
0.42400	300187
0.42467	296926
0.42533	293743
0.42600	290635
0.42667	287601
0.42733	284637
0.42800	281741
0.42867	278910
0.42933	276144
0.43000	273439
0.43067	270792
0.43133	268203
0.43200	265668
0.43267	263186
0.43333	260754
0.43400	258371
0.43467	256035
0.43533	253744
0.43600	251497
0.43667	249291
0.43733	247127
0.43800	245000
0.43867	242912
0.43933	240859
0.44000	238841
0.44067	236857
0.44133	234906
0.44200	232985
0.44267	231095
0.44333	229234
0.44400	227401
0.44467	225595
0.44533	223816
0.44600	222062
0.44667	220333
0.44733	218628
0.44800	216946
0.44867	215287
0.44933	213649
0.45000	212032
0.45067	210436
0.45133	208860
0.45200	207303
0.45267	205765
0.45333	204246
0.45400	202744
0.45467	201259
0.45533	199792
0.45600	198341
0.45667	196906
0.45733	195487
0.45800	194084
0.45867	192695
0.45933	191322
0.46000	189964
0.46067	188620
0.46133	187291
0.46200	185976
0.46267	184675
0.46333	183388
0.46400	182115
0.46467	180856
0.46533	179611
0.46600	178379
0.46667	177161
0.46733	175956
0.46800	174765
0.46867	173587
0.46933	172422
0.47000	171270
0.47067	170130
0.47133	169003
0.47200	167889
0.47267	166786
0.47333	165694
0.47400	164615
0.47467	163546
0.47533	162489
0.47600	161442
0.47667	160406
0.47733	159380
0.47800	158364
0.47867	157357
0.47933	156361
0.48000	155374
0.48067	154397
0.48133	153428
0.48200	152469
0.48267	151518
0.48333	150575
0.48400	149640
0.48467	148714
0.48533	147796
0.48600	146885
0.48667	145982
0.48733	145087
0.48800	144200
0.48867	143319
0.48933	142446
0.49000	141580
0.49067	140720
0.49133	139868
0.49200	139022
0.49267	138183
0.49333	137351
0.49400	136525
0.49467	135706
0.49533	134893
0.49600	134085
0.49667	133285
0.49733	132490
0.49800	131701
0.49867	130918
0.49933	130141
0.50000	129369
0.50067	128603
0.50133	127843
0.50200	127088
0.50267	126339
0.50333	125596
0.50400	124858
0.50467	124125
0.50533	123397
0.50600	122675
0.50667	121958
0.50733	121246
0.50800	120540
0.50867	119839
0.50933	119143
0.51000	118452
0.51067	117767
0.51133	117087
0.51200	116412
0.51267	115743
0.51333	115079
0.51400	114420
0.51467	113766
0.51533	113118
0.51600	112475
0.51667	111837
0.51733	111204
0.51800	110576
0.51867	109953
0.51933	109335
0.52000	108721
0.52067	108112
0.52133	107508
0.52200	106908
0.52267	106312
0.52333	105720
0.52400	105133
0.52467	104550
0.52533	103971
0.52600	103396
0.52667	102825
0.52733	102259
0.52800	101696
0.52867	101137
0.52933	100582
0.53000	100032
0.53067	99486
0.53133	98943
0.53200	98405
0.53267	97871
0.53333	97341
0.53400	96815
0.53467	96293
0.53533	95775
0.53600	95261
0.53667	94751
0.53733	94245
0.53800	93743
0.53867	93245
0.53933	92751
0.54000	92261
0.54067	91774
0.54133	91291
0.54200	90812
0.54267	90337
0.54333	89865
0.54400	89397
0.54467	88932
0.54533	88471
0.54600	88013
0.54667	87559
0.54733	87109
0.54800	86662
0.54867	86218
0.54933	85778
0.55000	85341
0.55067	84907
0.55133	84477
0.55200	84050
0.55267	83626
0.55333	83206
0.55400	82789
0.55467	82375
0.55533	81965
0.55600	81557
0.55667	81153
0.55733	80751
0.55800	80353
0.55867	79958
0.55933	79566
0.56000	79178
0.56067	78792
0.56133	78410
0.56200	78030
0.56267	77654
0.56333	77282
0.56400	76912
0.56467	76546
0.56533	76182
0.56600	75823
0.56667	75466
0.56733	75113
0.56800	74764
0.56867	74417
0.56933	74075
0.57000	73736
0.57067	73400
0.57133	73068
0.57200	72739
0.57267	72413
0.57333	72091
0.57400	71773
0.57467	71457
0.57533	71145
0.57600	70836
0.57667	70530
0.57733	70227
0.57800	69926
0.57867	69629
0.57933	69334
0.58000	69042
0.58067	68753
0.58133	68466
0.58200	68181
0.58267	67898
0.58333	67618
0.58400	67339
0.58467	67063
0.58533	66788
0.58600	66516
0.58667	66246
0.58733	65977
0.58800	65710
0.58867	65445
0.58933	65181
0.59000	64919
0.59067	64659
0.59133	64400
0.59200	64143
0.59267	63888
0.59333	63634
0.59400	63381
0.59467	63130
0.59533	62880
0.59600	62632
0.59667	62386
0.59733	62140
0.59800	61897
0.59867	61654
0.59933	61413
0.60000	61174
0.60067	60936
0.60133	60700
0.60200	60465
0.60267	60232
0.60333	60000
0.60400	59770
0.60467	59542
0.60533	59315
0.60600	59089
0.60667	58866
0.60733	58644
0.60800	58424
0.60867	58205
0.60933	57989
0.61000	57774
0.61067	57561
0.61133	57350
0.61200	57141
0.61267	56934
0.61333	56729
0.61400	56525
0.61467	56324
0.61533	56126
0.61600	55929
0.61667	55736
0.61733	55545
0.61800	55358
0.61867	55175
0.61933	54997
0.62000	54824
0.62067	54658
0.62133	54499
0.62200	54349
0.62267	54209
0.62333	54079
0.62400	53962
0.62467	53859
0.62533	53772
0.62600	53700
0.62667	53646
0.62733	53610
0.62800	53593
0.62867	53594
0.62933	53614
0.63000	53652
0.63067	53708
0.63133	53779
0.63200	53866
0.63267	53965
0.63333	54074
0.63400	54193
0.63467	54317
0.63533	54445
0.63600	54575
0.63667	54704
0.63733	54829
0.63800	54950
0.63867	55063
0.63933	55168
0.64000	55262
0.64067	55344
0.64133	55414
0.64200	55470
0.64267	55512
0.64333	55540
0.64400	55553
0.64467	55551
0.64533	55535
0.64600	55504
0.64667	55459
0.64733	55401
0.64800	55330
0.64867	55246
0.64933	55150
0.65000	55043
0.65067	54925
0.65133	54798
0.65200	54661
0.65267	54515
0.65333	54361
0.65400	54199
0.65467	54031
0.65533	53857
0.65600	53677
0.65667	53492
0.65733	53302
0.65800	53109
0.65867	52911
0.65933	52711
0.66000	52508
0.66067	52302
0.66133	52094
0.66200	51884
0.66267	51672
0.66333	51459
0.66400	51245
0.66467	51030
0.66533	50814
0.66600	50598
0.66667	50381
0.66733	50163
0.66800	49946
0.66867	49728
0.66933	49510
0.67000	49292
0.67067	49074
0.67133	48857
0.67200	48640
0.67267	48423
0.67333	48207
0.67400	47992
0.67467	47777
0.67533	47563
0.67600	47350
0.67667	47138
0.67733	46927
0.67800	46717
0.67867	46509
0.67933	46302
0.68000	46096
0.68067	45893
0.68133	45691
0.68200	45491
0.68267	45293
0.68333	45097
0.68400	44904
0.68467	44713
0.68533	44526
0.68600	44341
0.68667	44160
0.68733	43982
0.68800	43808
0.68867	43639
0.68933	43475
0.69000	43315
0.69067	43162
0.69133	43014
0.69200	42874
0.69267	42742
0.69333	42618
0.69400	42505
0.69467	42402
0.69533	42311
0.69600	42235
0.69667	42174
0.69733	42131
0.69800	42107
0.69867	42104
0.69933	42123
0.70000	42166
0.70067	42234
0.70133	42327
0.70200	42448
0.70267	42595
0.70333	42769
0.70400	42970
0.70467	43196
0.70533	43445
0.70600	43716
0.70667	44005
0.70733	44310
0.70800	44626
0.70867	44952
0.70933	45282
0.71000	45614
0.71067	45942
0.71133	46265
0.71200	46578
0.71267	46879
0.71333	47164
0.71400	47432
0.71467	47679
0.71533	47906
0.71600	48111
0.71667	48292
0.71733	48449
0.71800	48582
0.71867	48691
0.71933	48776
0.72000	48837
0.72067	48876
0.72133	48893
0.72200	48889
0.72267	48865
0.72333	48822
0.72400	48761
0.72467	48682
0.72533	48588
0.72600	48478
0.72667	48354
0.72733	48217
0.72800	48068
0.72867	47908
0.72933	47737
0.73000	47556
0.73067	47367
0.73133	47169
0.73200	46964
0.73267	46753
0.73333	46535
0.73400	46312
0.73467	46084
0.73533	45851
0.73600	45615
0.73667	45376
0.73733	45133
0.73800	44889
0.73867	44642
0.73933	44394
0.74000	44144
0.74067	43894
0.74133	43642
0.74200	43391
0.74267	43140
0.74333	42889
0.74400	42638
0.74467	42388
0.74533	42139
0.74600	41891
0.74667	41644
0.74733	41399
0.74800	41156
0.74867	40914
0.74933	40674
0.75000	40437
0.75067	40201
0.75133	39968
0.75200	39737
0.75267	39508
0.75333	39282
0.75400	39058
0.75467	38837
0.75533	38618
0.75600	38403
0.75667	38189
0.75733	37979
0.75800	37771
0.75867	37566
0.75933	37364
0.76000	37165
0.76067	36968
0.76133	36774
0.76200	36583
0.76267	36394
0.76333	36209
0.76400	36026
0.76467	35846
0.76533	35669
0.76600	35494
0.76667	35322
0.76733	35153
0.76800	34987
0.76867	34824
0.76933	34663
0.77000	34505
0.77067	34349
0.77133	34196
0.77200	34046
0.77267	33898
0.77333	33753
0.77400	33611
0.77467	33471
0.77533	33333
0.77600	33198
0.77667	33065
0.77733	32935
0.77800	32806
0.77867	32680
0.77933	32557
0.78000	32435
0.78067	32316
0.78133	32198
0.78200	32083
0.78267	31969
0.78333	31858
0.78400	31749
0.78467	31641
0.78533	31535
0.78600	31431
0.78667	31329
0.78733	31229
0.78800	31130
0.78867	31032
0.78933	30937
0.79000	30843
0.79067	30750
0.79133	30659
0.79200	30569
0.79267	30481
0.79333	30394
0.79400	30309
0.79467	30225
0.79533	30142
0.79600	30060
0.79667	29979
0.79733	29900
0.79800	29822
0.79867	29745
0.79933	29669
0.80000	29594
0.80067	29521
0.80133	29448
0.80200	29377
0.80267	29306
0.80333	29237
0.80400	29168
0.80467	29100
0.80533	29033
0.80600	28967
0.80667	28902
0.80733	28838
0.80800	28774
0.80867	28711
0.80933	28649
0.81000	28587
0.81067	28526
0.81133	28465
0.81200	28406
0.81267	28346
0.81333	28288
0.81400	28229
0.81467	28172
0.81533	28114
0.81600	28057
0.81667	28001
0.81733	27945
0.81800	27890
0.81867	27835
0.81933	27780
0.82000	27726
0.82067	27673
0.82133	27619
0.82200	27566
