[Header]
Application Name	LabSolutions
Version	5.73
Data File Name	C:\LabSolutions\Data\Project1\stephen\2016-01-04\85.gcd
Output Date	1/5/2016
Output Time	4:51:45 PM

[Configuration]
Instrument Name	WEISSTA-PC-Instrument1
Instrument #	1
Line #	1
# of Detectors	1
Detector ID	DET#2
Detector Name	DFID1
# of Channels	1

[Chromatogram (Ch1)]
Interval(msec)	40
# of Points	9600
Start Time(min)	0.000
End Time(min)	6.399
R.Time (min)	Intensity
0.00000	4
0.00067	4
0.00133	4
0.00200	4
0.00267	4
0.00333	4
0.00400	4
0.00467	4
0.00533	4
0.00600	4
0.00667	5
0.00733	5
0.00800	5
0.00867	5
0.00933	4
0.01000	4
0.01067	4
0.01133	3
0.01200	2
0.01267	1
0.01333	-0
0.01400	-2
0.01467	-3
0.01533	-5
0.01600	-7
0.01667	-9
0.01733	-11
0.01800	-14
0.01867	-16
0.01933	-19
0.02000	-21
0.02067	-24
0.02133	-27
0.02200	-30
0.02267	-33
0.02333	-35
0.02400	-38
0.02467	-41
0.02533	-44
0.02600	-46
0.02667	-49
0.02733	-52
0.02800	-54
0.02867	-56
0.02933	-58
0.03000	-61
0.03067	-62
0.03133	-64
0.03200	-66
0.03267	-68
0.03333	-69
0.03400	-71
0.03467	-72
0.03533	-73
0.03600	-75
0.03667	-76
0.03733	-77
0.03800	-78
0.03867	-78
0.03933	-79
0.04000	-80
0.04067	-80
0.04133	-81
0.04200	-81
0.04267	-81
0.04333	-81
0.04400	-82
0.04467	-82
0.04533	-82
0.04600	-82
0.04667	-82
0.04733	-82
0.04800	-82
0.04867	-82
0.04933	-82
0.05000	-82
0.05067	-81
0.05133	-81
0.05200	-81
0.05267	-81
0.05333	-81
0.05400	-81
0.05467	-81
0.05533	-81
0.05600	-81
0.05667	-81
0.05733	-80
0.05800	-80
0.05867	-80
0.05933	-80
0.06000	-80
0.06067	-80
0.06133	-80
0.06200	-80
0.06267	-80
0.06333	-80
0.06400	-80
0.06467	-80
0.06533	-80
0.06600	-80
0.06667	-79
0.06733	-79
0.06800	-79
0.06867	-79
0.06933	-79
0.07000	-79
0.07067	-79
0.07133	-79
0.07200	-79
0.07267	-79
0.07333	-79
0.07400	-79
0.07467	-79
0.07533	-79
0.07600	-79
0.07667	-79
0.07733	-79
0.07800	-79
0.07867	-79
0.07933	-79
0.08000	-79
0.08067	-80
0.08133	-80
0.08200	-80
0.08267	-80
0.08333	-80
0.08400	-80
0.08467	-80
0.08533	-79
0.08600	-73
0.08667	-58
0.08733	-34
0.08800	12
0.08867	88
0.08933	210
0.09000	377
0.09067	595
0.09133	867
0.09200	1204
0.09267	1601
0.09333	2054
0.09400	2558
0.09467	3130
0.09533	3769
0.09600	4477
0.09667	5273
0.09733	6132
0.09800	7090
0.09867	8105
0.09933	9161
0.10000	10324
0.10067	11577
0.10133	12901
0.10200	14257
0.10267	15622
0.10333	17052
0.10400	18520
0.10467	20012
0.10533	21488
0.10600	22973
0.10667	24541
0.10733	26083
0.10800	27582
0.10867	29054
0.10933	30459
0.11000	31836
0.11067	33172
0.11133	34465
0.11200	35695
0.11267	36853
0.11333	37998
0.11400	39137
0.11467	40276
0.11533	41394
0.11600	42409
0.11667	43352
0.11733	44236
0.11800	45053
0.11867	45808
0.11933	46512
0.12000	47145
0.12067	47702
0.12133	48219
0.12200	48700
0.12267	49117
0.12333	49470
0.12400	49772
0.12467	50087
0.12533	50383
0.12600	50609
0.12667	50767
0.12733	50891
0.12800	50964
0.12867	50971
0.12933	50927
0.13000	50864
0.13067	50830
0.13133	51084
0.13200	52657
0.13267	58431
0.13333	75228
0.13400	116498
0.13467	206328
0.13533	379289
0.13600	676938
0.13667	1139085
0.13733	1804553
0.13800	2703720
0.13867	3858931
0.13933	5284438
0.14000	6987755
0.14067	8971353
0.14133	11234679
0.14200	13775620
0.14267	16590296
0.14333	19670826
0.14400	23005023
0.14467	26583754
0.14533	30405426
0.14600	34469011
0.14667	38765656
0.14733	43279305
0.14800	47988870
0.14867	52870608
0.14933	57900090
0.15000	63053302
0.15067	68307904
0.15133	73643149
0.15200	79040776
0.15267	84483871
0.15333	89956984
0.15400	95445955
0.15467	100937377
0.15533	106418579
0.15600	111877716
0.15667	117303754
0.15733	122686377
0.15800	128015750
0.15867	133282665
0.15933	138479220
0.16000	143598107
0.16067	148632757
0.16133	153577215
0.16200	158426519
0.16267	163175265
0.16333	167818838
0.16400	172352628
0.16467	176772265
0.16533	181073384
0.16600	185251923
0.16667	189303800
0.16733	193225119
0.16800	197011989
0.16867	200660658
0.16933	204167477
0.17000	207528840
0.17067	210740917
0.17133	213799589
0.17200	216700680
0.17267	219439956
0.17333	222013317
0.17400	224416657
0.17467	226646250
0.17533	228698621
0.17600	230571142
0.17667	232261423
0.17733	233768017
0.17800	235090038
0.17867	236227737
0.17933	237181511
0.18000	237952907
0.18067	238543844
0.18133	238957238
0.18200	239196438
0.18267	239265359
0.18333	239168246
0.18400	238909672
0.18467	238494206
0.18533	237926562
0.18600	237211667
0.18667	236354621
0.18733	235360590
0.18800	234234772
0.18867	232982437
0.18933	231608826
0.19000	230119263
0.19067	228519016
0.19133	226813494
0.19200	225008007
0.19267	223107942
0.19333	221118455
0.19400	219044666
0.19467	216891513
0.19533	214664005
0.19600	212367000
0.19667	210005347
0.19733	207583739
0.19800	205106838
0.19867	202579178
0.19933	200005287
0.20000	197389531
0.20067	194736162
0.20133	192049340
0.20200	189333130
0.20267	186591501
0.20333	183828250
0.20400	181047105
0.20467	178251731
0.20533	175445761
0.20600	172632726
0.20667	169816051
0.20733	166998971
0.20800	164184585
0.20867	161375891
0.20933	158575949
0.21000	155787835
0.21067	153014352
0.21133	150257698
0.21200	147519454
0.21267	144800741
0.21333	142102462
0.21400	139425408
0.21467	136770392
0.21533	134138244
0.21600	131529842
0.21667	128946076
0.21733	126387830
0.21800	123855977
0.21867	121351372
0.21933	118874832
0.22000	116427136
0.22067	114009026
0.22133	111621190
0.22200	109264281
0.22267	106938872
0.22333	104645471
0.22400	102384525
0.22467	100156435
0.22533	97961536
0.22600	95800129
0.22667	93672453
0.22733	91578704
0.22800	89519023
0.22867	87493506
0.22933	85502207
0.23000	83545138
0.23067	81622263
0.23133	79733514
0.23200	77878784
0.23267	76057935
0.23333	74270803
0.23400	72517195
0.23467	70796892
0.23533	69109649
0.23600	67455202
0.23667	65833261
0.23733	64243525
0.23800	62685671
0.23867	61159365
0.23933	59664251
0.24000	58199962
0.24067	56766125
0.24133	55362358
0.24200	53988266
0.24267	52643451
0.24333	51327506
0.24400	50040022
0.24467	48780584
0.24533	47548773
0.24600	46344167
0.24667	45166342
0.24733	44014877
0.24800	42889346
0.24867	41789325
0.24933	40714387
0.25000	39664111
0.25067	38638073
0.25133	37635853
0.25200	36657033
0.25267	35701196
0.25333	34767926
0.25400	33856811
0.25467	32967442
0.25533	32099411
0.25600	31252313
0.25667	30425748
0.25733	29619321
0.25800	28832637
0.25867	28065305
0.25933	27316938
0.26000	26587153
0.26067	25875574
0.26133	25181827
0.26200	24505542
0.26267	23846352
0.26333	23203897
0.26400	22577819
0.26467	21967766
0.26533	21373391
0.26600	20794353
0.26667	20230313
0.26733	19680939
0.26800	19145905
0.26867	18624888
0.26933	18117571
0.27000	17623643
0.27067	17142798
0.27133	16674734
0.27200	16219155
0.27267	15775770
0.27333	15344295
0.27400	14924449
0.27467	14515958
0.27533	14118555
0.27600	13731978
0.27667	13355970
0.27733	12990279
0.27800	12634662
0.27867	12288881
0.27933	11952704
0.28000	11625909
0.28067	11308281
0.28133	10999611
0.28200	10699702
0.28267	10408366
0.28333	10125429
0.28400	9850733
0.28467	9584130
0.28533	9325495
0.28600	9074718
0.28667	8831707
0.28733	8596380
0.28800	8368666
0.28867	8148495
0.28933	7935801
0.29000	7730511
0.29067	7532552
0.29133	7341837
0.29200	7158277
0.29267	6981769
0.29333	6812200
0.29400	6649454
0.29467	6493403
0.29533	6343911
0.29600	6200831
0.29667	6064011
0.29733	5933284
0.29800	5808481
0.29867	5689423
0.29933	5575926
0.30000	5467801
0.30067	5364865
0.30133	5266934
0.30200	5173830
0.30267	5085374
0.30333	5001391
0.30400	4921707
0.30467	4846149
0.30533	4774545
0.30600	4706724
0.30667	4642513
0.30733	4581743
0.30800	4524246
0.30867	4469859
0.30933	4418423
0.31000	4369781
0.31067	4323784
0.31133	4280287
0.31200	4239155
0.31267	4200260
0.31333	4163486
0.31400	4128723
0.31467	4095873
0.31533	4064847
0.31600	4035560
0.31667	4007936
0.31733	3981898
0.31800	3957365
0.31867	3934254
0.31933	3912471
0.32000	3891916
0.32067	3872479
0.32133	3854040
0.32200	3836485
0.32267	3819701
0.32333	3803580
0.32400	3788008
0.32467	3772867
0.32533	3758032
0.32600	3743369
0.32667	3728738
0.32733	3713989
0.32800	3698973
0.32867	3683537
0.32933	3667537
0.33000	3650828
0.33067	3633270
0.33133	3614728
0.33200	3595084
0.33267	3574229
0.33333	3552071
0.33400	3528531
0.33467	3503553
0.33533	3477093
0.33600	3449133
0.33667	3419670
0.33733	3388719
0.33800	3356316
0.33867	3322510
0.33933	3287364
0.34000	3250951
0.34067	3213351
0.34133	3174653
0.34200	3134945
0.34267	3094320
0.34333	3052871
0.34400	3010689
0.34467	2967865
0.34533	2924488
0.34600	2880640
0.34667	2836406
0.34733	2791862
0.34800	2747084
0.34867	2702143
0.34933	2657104
0.35000	2612032
0.35067	2566984
0.35133	2522017
0.35200	2477182
0.35267	2432528
0.35333	2388098
0.35400	2343934
0.35467	2300074
0.35533	2256553
0.35600	2213404
0.35667	2170655
0.35733	2128333
0.35800	2086464
0.35867	2045068
0.35933	2004165
0.36000	1963775
0.36067	1923911
0.36133	1884589
0.36200	1845821
0.36267	1807616
0.36333	1769986
0.36400	1732940
0.36467	1696484
0.36533	1660625
0.36600	1625367
0.36667	1590715
0.36733	1556668
0.36800	1523230
0.36867	1490400
0.36933	1458176
0.37000	1426558
0.37067	1395544
0.37133	1365130
0.37200	1335314
0.37267	1306090
0.37333	1277455
0.37400	1249404
0.37467	1221931
0.37533	1195031
0.37600	1168697
0.37667	1142922
0.37733	1117701
0.37800	1093026
0.37867	1068888
0.37933	1045281
0.38000	1022194
0.38067	999622
0.38133	977557
0.38200	955994
0.38267	934925
0.38333	914344
0.38400	894246
0.38467	874624
0.38533	855470
0.38600	836779
0.38667	818544
0.38733	800761
0.38800	783423
0.38867	766526
0.38933	750067
0.39000	734043
0.39067	718453
0.39133	703295
0.39200	688567
0.39267	674264
0.39333	660379
0.39400	646903
0.39467	633824
0.39533	621135
0.39600	608825
0.39667	596883
0.39733	585299
0.39800	574062
0.39867	563161
0.39933	552587
0.40000	542328
0.40067	532374
0.40133	522715
0.40200	513343
0.40267	504246
0.40333	495417
0.40400	486845
0.40467	478522
0.40533	470441
0.40600	462592
0.40667	454968
0.40733	447562
0.40800	440366
0.40867	433374
0.40933	426577
0.41000	419970
0.41067	413547
0.41133	407301
0.41200	401228
0.41267	395320
0.41333	389573
0.41400	383982
0.41467	378540
0.41533	373244
0.41600	368089
0.41667	363069
0.41733	358181
0.41800	353419
0.41867	348780
0.41933	344259
0.42000	339853
0.42067	335557
0.42133	331369
0.42200	327284
0.42267	323298
0.42333	319409
0.42400	315614
0.42467	311908
0.42533	308289
0.42600	304755
0.42667	301301
0.42733	297926
0.42800	294627
0.42867	291402
0.42933	288248
0.43000	285162
0.43067	282142
0.43133	279187
0.43200	276293
0.43267	273460
0.43333	270684
0.43400	267965
0.43467	265300
0.43533	262688
0.43600	260126
0.43667	257614
0.43733	255150
0.43800	252733
0.43867	250360
0.43933	248031
0.44000	245744
0.44067	243497
0.44133	241291
0.44200	239123
0.44267	236992
0.44333	234898
0.44400	232838
0.44467	230812
0.44533	228820
0.44600	226859
0.44667	224930
0.44733	223031
0.44800	221161
0.44867	219319
0.44933	217505
0.45000	215717
0.45067	213956
0.45133	212219
0.45200	210507
0.45267	208818
0.45333	207152
0.45400	205508
0.45467	203886
0.45533	202286
0.45600	200705
0.45667	199145
0.45733	197603
0.45800	196081
0.45867	194578
0.45933	193093
0.46000	191625
0.46067	190175
0.46133	188742
0.46200	187326
0.46267	185927
0.46333	184544
0.46400	183178
0.46467	181827
0.46533	180492
0.46600	179174
0.46667	177870
0.46733	176583
0.46800	175310
0.46867	174052
0.46933	172809
0.47000	171581
0.47067	170367
0.47133	169168
0.47200	167983
0.47267	166812
0.47333	165654
0.47400	164509
0.47467	163378
0.47533	162259
0.47600	161153
0.47667	160060
0.47733	158978
0.47800	157908
0.47867	156849
0.47933	155802
0.48000	154765
0.48067	153740
0.48133	152725
0.48200	151720
0.48267	150726
0.48333	149742
0.48400	148768
0.48467	147803
0.48533	146847
0.48600	145901
0.48667	144964
0.48733	144036
0.48800	143117
0.48867	142206
0.48933	141304
0.49000	140411
0.49067	139525
0.49133	138648
0.49200	137779
0.49267	136918
0.49333	136064
0.49400	135218
0.49467	134379
0.49533	133548
0.49600	132725
0.49667	131908
0.49733	131099
0.49800	130297
0.49867	129501
0.49933	128713
0.50000	127932
0.50067	127157
0.50133	126389
0.50200	125628
0.50267	124872
0.50333	124124
0.50400	123382
0.50467	122646
0.50533	121917
0.50600	121194
0.50667	120477
0.50733	119767
0.50800	119063
0.50867	118364
0.50933	117672
0.51000	116986
0.51067	116306
0.51133	115631
0.51200	114963
0.51267	114300
0.51333	113642
0.51400	112990
0.51467	112343
0.51533	111702
0.51600	111066
0.51667	110435
0.51733	109809
0.51800	109187
0.51867	108571
0.51933	107959
0.52000	107352
0.52067	106750
0.52133	106152
0.52200	105559
0.52267	104971
0.52333	104387
0.52400	103808
0.52467	103234
0.52533	102664
0.52600	102099
0.52667	101538
0.52733	100981
0.52800	100429
0.52867	99882
0.52933	99339
0.53000	98800
0.53067	98265
0.53133	97735
0.53200	97208
0.53267	96686
0.53333	96168
0.53400	95654
0.53467	95145
0.53533	94639
0.53600	94137
0.53667	93639
0.53733	93145
0.53800	92655
0.53867	92169
0.53933	91686
0.54000	91207
0.54067	90733
0.54133	90262
0.54200	89794
0.54267	89331
0.54333	88871
0.54400	88416
0.54467	87963
0.54533	87515
0.54600	87070
0.54667	86628
0.54733	86191
0.54800	85756
0.54867	85326
0.54933	84898
0.55000	84475
0.55067	84054
0.55133	83637
0.55200	83223
0.55267	82813
0.55333	82406
0.55400	82002
0.55467	81602
0.55533	81204
0.55600	80810
0.55667	80419
0.55733	80031
0.55800	79647
0.55867	79265
0.55933	78887
0.56000	78512
0.56067	78140
0.56133	77771
0.56200	77406
0.56267	77043
0.56333	76684
0.56400	76328
0.56467	75976
0.56533	75627
0.56600	75282
0.56667	74940
0.56733	74602
0.56800	74267
0.56867	73936
0.56933	73609
0.57000	73286
0.57067	72966
0.57133	72651
0.57200	72339
0.57267	72030
0.57333	71726
0.57400	71425
0.57467	71128
0.57533	70834
0.57600	70543
0.57667	70256
0.57733	69971
0.57800	69690
0.57867	69411
0.57933	69134
0.58000	68860
0.58067	68588
0.58133	68319
0.58200	68051
0.58267	67785
0.58333	67521
0.58400	67258
0.58467	66997
0.58533	66738
0.58600	66480
0.58667	66223
0.58733	65968
0.58800	65713
0.58867	65460
0.58933	65208
0.59000	64957
0.59067	64708
0.59133	64459
0.59200	64212
0.59267	63966
0.59333	63721
0.59400	63476
0.59467	63234
0.59533	62992
0.59600	62751
0.59667	62511
0.59733	62273
0.59800	62035
0.59867	61798
0.59933	61563
0.60000	61328
0.60067	61095
0.60133	60863
0.60200	60632
0.60267	60402
0.60333	60174
0.60400	59946
0.60467	59720
0.60533	59495
0.60600	59271
0.60667	59048
0.60733	58827
0.60800	58607
0.60867	58388
0.60933	58170
0.61000	57954
0.61067	57738
0.61133	57524
0.61200	57311
0.61267	57099
0.61333	56888
0.61400	56678
0.61467	56469
0.61533	56262
0.61600	56055
0.61667	55850
0.61733	55645
0.61800	55442
0.61867	55240
0.61933	55039
0.62000	54839
0.62067	54640
0.62133	54443
0.62200	54246
0.62267	54051
0.62333	53858
0.62400	53665
0.62467	53474
0.62533	53285
0.62600	53097
0.62667	52911
0.62733	52726
0.62800	52542
0.62867	52360
0.62933	52180
0.63000	52001
0.63067	51824
0.63133	51648
0.63200	51474
0.63267	51302
0.63333	51131
0.63400	50962
0.63467	50795
0.63533	50629
0.63600	50464
0.63667	50301
0.63733	50139
0.63800	49979
0.63867	49820
0.63933	49662
0.64000	49505
0.64067	49349
0.64133	49194
0.64200	49041
0.64267	48888
0.64333	48737
0.64400	48586
0.64467	48437
0.64533	48288
0.64600	48140
0.64667	47993
0.64733	47848
0.64800	47703
0.64867	47559
0.64933	47417
0.65000	47275
0.65067	47135
0.65133	46996
0.65200	46857
0.65267	46721
0.65333	46585
0.65400	46451
0.65467	46318
0.65533	46186
0.65600	46055
0.65667	45927
0.65733	45799
0.65800	45672
0.65867	45547
0.65933	45423
0.66000	45301
0.66067	45179
0.66133	45059
0.66200	44940
0.66267	44822
0.66333	44705
0.66400	44589
0.66467	44474
0.66533	44360
0.66600	44247
0.66667	44135
0.66733	44024
0.66800	43914
0.66867	43804
0.66933	43695
0.67000	43586
0.67067	43478
0.67133	43370
0.67200	43262
0.67267	43155
0.67333	43048
0.67400	42942
0.67467	42836
0.67533	42730
0.67600	42625
0.67667	42520
0.67733	42416
0.67800	42312
0.67867	42208
0.67933	42105
0.68000	42003
0.68067	41901
0.68133	41799
0.68200	41699
0.68267	41599
0.68333	41499
0.68400	41401
0.68467	41303
0.68533	41207
0.68600	41112
0.68667	41018
0.68733	40926
0.68800	40837
0.68867	40750
0.68933	40666
0.69000	40585
0.69067	40510
0.69133	40440
0.69200	40376
0.69267	40321
0.69333	40274
0.69400	40238
0.69467	40214
0.69533	40204
0.69600	40210
0.69667	40234
0.69733	40277
0.69800	40342
0.69867	40430
0.69933	40543
0.70000	40682
0.70067	40849
0.70133	41046
0.70200	41273
0.70267	41530
0.70333	41817
0.70400	42133
0.70467	42478
0.70533	42851
0.70600	43250
0.70667	43673
0.70733	44116
0.70800	44578
0.70867	45053
0.70933	45538
0.71000	46030
0.71067	46524
0.71133	47016
0.71200	47503
0.71267	47980
0.71333	48445
0.71400	48895
0.71467	49326
0.71533	49737
0.71600	50124
0.71667	50488
0.71733	50825
0.71800	51135
0.71867	51417
0.71933	51671
0.72000	51897
0.72067	52095
0.72133	52265
0.72200	52408
0.72267	52524
0.72333	52614
0.72400	52679
0.72467	52720
0.72533	52738
0.72600	52733
0.72667	52707
0.72733	52661
0.72800	52596
0.72867	52513
0.72933	52412
0.73000	52295
0.73067	52163
0.73133	52016
0.73200	51856
0.73267	51683
0.73333	51499
0.73400	51303
0.73467	51098
0.73533	50883
0.73600	50660
0.73667	50429
0.73733	50190
0.73800	49945
0.73867	49694
0.73933	49438
0.74000	49177
0.74067	48911
0.74133	48642
0.74200	48369
0.74267	48094
0.74333	47816
0.74400	47536
0.74467	47255
0.74533	46972
0.74600	46688
0.74667	46404
0.74733	46120
0.74800	45836
0.74867	45552
0.74933	45269
0.75000	44986
0.75067	44705
0.75133	44424
0.75200	44145
0.75267	43868
0.75333	43593
0.75400	43320
0.75467	43048
0.75533	42780
0.75600	42513
0.75667	42249
0.75733	41988
0.75800	41730
0.75867	41475
0.75933	41223
0.76000	40974
0.76067	40728
0.76133	40485
0.76200	40246
0.76267	40010
0.76333	39778
0.76400	39550
0.76467	39325
0.76533	39103
0.76600	38886
0.76667	38672
0.76733	38462
0.76800	38255
0.76867	38052
0.76933	37853
0.77000	37658
0.77067	37466
0.77133	37278
0.77200	37094
0.77267	36913
0.77333	36736
0.77400	36562
0.77467	36391
0.77533	36224
0.77600	36061
0.77667	35901
0.77733	35743
0.77800	35589
0.77867	35438
0.77933	35290
0.78000	35145
0.78067	35002
0.78133	34863
0.78200	34725
0.78267	34590
0.78333	34458
0.78400	34328
0.78467	34200
0.78533	34074
0.78600	33950
0.78667	33828
0.78733	33709
0.78800	33590
0.78867	33474
0.78933	33359
0.79000	33246
0.79067	33134
0.79133	33024
0.79200	32915
0.79267	32807
0.79333	32700
0.79400	32595
0.79467	32491
0.79533	32388
0.79600	32286
0.79667	32185
0.79733	32086
0.79800	31987
0.79867	31889
0.79933	31793
0.80000	31697
0.80067	31603
0.80133	31509
0.80200	31417
0.80267	31325
0.80333	31234
0.80400	31144
0.80467	31055
0.80533	30967
0.80600	30880
0.80667	30794
0.80733	30708
0.80800	30624
0.80867	30540
0.80933	30457
0.81000	30375
0.81067	30294
0.81133	30213
0.81200	30134
0.81267	30055
0.81333	29977
0.81400	29900
0.81467	29823
0.81533	29748
0.81600	29673
0.81667	29599
0.81733	29526
0.81800	29454
0.81867	29382
0.81933	29311
0.82000	29241
0.82067	29172
0.82133	29103
0.82200	29036
0.82267	28969
0.82333	28903
0.82400	28837
0.82467	28772
0.82533	28708
