[Header]
Application Name	LabSolutions
Version	5.73
Data File Name	C:\LabSolutions\Data\Project1\stephen\2016-01-04\88.gcd
Output Date	1/5/2016
Output Time	4:51:45 PM

[Configuration]
Instrument Name	WEISSTA-PC-Instrument1
Instrument #	1
Line #	1
# of Detectors	1
Detector ID	DET#2
Detector Name	DFID1
# of Channels	1

[Chromatogram (Ch1)]
Interval(msec)	40
# of Points	9600
Start Time(min)	0.000
End Time(min)	6.399
R.Time (min)	Intensity
0.00000	19
0.00067	19
0.00133	19
0.00200	19
0.00267	19
0.00333	19
0.00400	19
0.00467	19
0.00533	19
0.00600	20
0.00667	20
0.00733	20
0.00800	21
0.00867	21
0.00933	22
0.01000	22
0.01067	23
0.01133	23
0.01200	24
0.01267	24
0.01333	24
0.01400	25
0.01467	25
0.01533	26
0.01600	26
0.01667	26
0.01733	26
0.01800	27
0.01867	27
0.01933	27
0.02000	27
0.02067	26
0.02133	26
0.02200	26
0.02267	25
0.02333	24
0.02400	24
0.02467	23
0.02533	22
0.02600	21
0.02667	20
0.02733	19
0.02800	18
0.02867	17
0.02933	16
0.03000	15
0.03067	14
0.03133	13
0.03200	12
0.03267	11
0.03333	10
0.03400	9
0.03467	8
0.03533	7
0.03600	6
0.03667	5
0.03733	5
0.03800	4
0.03867	3
0.03933	2
0.04000	2
0.04067	1
0.04133	0
0.04200	-0
0.04267	-1
0.04333	-1
0.04400	-2
0.04467	-2
0.04533	-3
0.04600	-3
0.04667	-4
0.04733	-4
0.04800	-4
0.04867	-5
0.04933	-5
0.05000	-5
0.05067	-5
0.05133	-5
0.05200	-6
0.05267	-6
0.05333	-6
0.05400	-6
0.05467	-6
0.05533	-7
0.05600	-7
0.05667	-7
0.05733	-7
0.05800	-7
0.05867	-8
0.05933	-8
0.06000	-8
0.06067	-8
0.06133	-8
0.06200	-9
0.06267	-9
0.06333	-9
0.06400	-9
0.06467	-9
0.06533	-9
0.06600	-10
0.06667	-10
0.06733	-10
0.06800	-10
0.06867	-10
0.06933	-10
0.07000	-10
0.07067	-10
0.07133	-10
0.07200	-10
0.07267	-10
0.07333	-10
0.07400	-10
0.07467	-10
0.07533	-10
0.07600	-10
0.07667	-10
0.07733	-10
0.07800	-10
0.07867	-10
0.07933	-10
0.08000	-10
0.08067	-10
0.08133	-10
0.08200	-10
0.08267	-10
0.08333	-10
0.08400	-10
0.08467	-10
0.08533	-9
0.08600	-8
0.08667	-5
0.08733	4
0.08800	18
0.08867	41
0.08933	77
0.09000	122
0.09067	190
0.09133	279
0.09200	394
0.09267	521
0.09333	652
0.09400	795
0.09467	968
0.09533	1176
0.09600	1410
0.09667	1670
0.09733	1952
0.09800	2249
0.09867	2552
0.09933	2876
0.10000	3224
0.10067	3566
0.10133	3914
0.10200	4281
0.10267	4656
0.10333	5023
0.10400	5391
0.10467	5781
0.10533	6179
0.10600	6562
0.10667	6952
0.10733	7339
0.10800	7715
0.10867	8074
0.10933	8415
0.11000	8737
0.11067	9039
0.11133	9329
0.11200	9634
0.11267	9927
0.11333	10206
0.11400	10510
0.11467	10837
0.11533	11164
0.11600	11478
0.11667	11772
0.11733	12051
0.11800	12310
0.11867	12550
0.11933	12779
0.12000	13016
0.12067	13282
0.12133	13564
0.12200	13836
0.12267	14100
0.12333	14347
0.12400	14590
0.12467	14817
0.12533	15036
0.12600	15238
0.12667	15423
0.12733	15591
0.12800	15735
0.12867	15851
0.12933	15938
0.13000	16001
0.13067	16069
0.13133	16194
0.13200	16617
0.13267	18047
0.13333	22207
0.13400	32515
0.13467	55201
0.13533	100102
0.13600	182598
0.13667	323546
0.13733	549411
0.13800	888593
0.13867	1370895
0.13933	2023831
0.14000	2873241
0.14067	3940208
0.14133	5242350
0.14200	6791408
0.14267	8595121
0.14333	10656404
0.14400	12975596
0.14467	15551316
0.14533	18381620
0.14600	21463072
0.14667	24787082
0.14733	28337646
0.14800	32101447
0.14867	36079135
0.14933	40274924
0.15000	44685667
0.15067	49299250
0.15133	54097655
0.15200	59059408
0.15267	64161168
0.15333	69379833
0.15400	74693644
0.15467	80082761
0.15533	85528854
0.15600	91015263
0.15667	96526506
0.15733	102048243
0.15800	107567065
0.15867	113070482
0.15933	118546812
0.16000	123985243
0.16067	129375670
0.16133	134709032
0.16200	139977164
0.16267	145172995
0.16333	150289733
0.16400	155320223
0.16467	160257030
0.16533	165092751
0.16600	169820470
0.16667	174433578
0.16733	178925947
0.16800	183291774
0.16867	187525774
0.16933	191622768
0.17000	195578205
0.17067	199387522
0.17133	203046211
0.17200	206549369
0.17267	209892442
0.17333	213070393
0.17400	216078189
0.17467	218910696
0.17533	221562996
0.17600	224030325
0.17667	226308513
0.17733	228394225
0.17800	230284984
0.17867	231979408
0.17933	233476935
0.18000	234778260
0.18067	235884851
0.18133	236798915
0.18200	237523047
0.18267	238060461
0.18333	238414595
0.18400	238589446
0.18467	238589086
0.18533	238418137
0.18600	238081207
0.18667	237583323
0.18733	236929494
0.18800	236125005
0.18867	235175070
0.18933	234085095
0.19000	232860547
0.19067	231507079
0.19133	230030359
0.19200	228436057
0.19267	226729804
0.19333	224917278
0.19400	223004163
0.19467	220996143
0.19533	218899042
0.19600	216718743
0.19667	214461186
0.19733	212132266
0.19800	209737881
0.19867	207283766
0.19933	204775703
0.20000	202219662
0.20067	199621727
0.20133	196987361
0.20200	194320968
0.20267	191625961
0.20333	188905258
0.20400	186161523
0.20467	183397490
0.20533	180615918
0.20600	177819669
0.20667	175011644
0.20733	172194779
0.20800	169372012
0.20867	166546237
0.20933	163720326
0.21000	160897082
0.21067	158079221
0.21133	155269341
0.21200	152469957
0.21267	149683455
0.21333	146912107
0.21400	144158038
0.21467	141423261
0.21533	138709646
0.21600	136018948
0.21667	133352781
0.21733	130712656
0.21800	128099961
0.21867	125515976
0.21933	122961861
0.22000	120438660
0.22067	117947311
0.22133	115488664
0.22200	113063463
0.22267	110672360
0.22333	108315923
0.22400	105994631
0.22467	103708883
0.22533	101458994
0.22600	99245219
0.22667	97067746
0.22733	94926705
0.22800	92822165
0.22867	90754145
0.22933	88722606
0.23000	86727464
0.23067	84768585
0.23133	82845806
0.23200	80958922
0.23267	79107706
0.23333	77291890
0.23400	75511179
0.23467	73765254
0.23533	72053780
0.23600	70376391
0.23667	68732703
0.23733	67122312
0.23800	65544796
0.23867	63999725
0.23933	62486655
0.24000	61005117
0.24067	59554639
0.24133	58134748
0.24200	56744962
0.24267	55384801
0.24333	54053776
0.24400	52751402
0.24467	51477187
0.24533	50230646
0.24600	49011295
0.24667	47818650
0.24733	46652227
0.24800	45511545
0.24867	44396129
0.24933	43305510
0.25000	42239219
0.25067	41196789
0.25133	40177762
0.25200	39181684
0.25267	38208109
0.25333	37256598
0.25400	36326719
0.25467	35418045
0.25533	34530160
0.25600	33662649
0.25667	32815107
0.25733	31987135
0.25800	31178341
0.25867	30388342
0.25933	29616762
0.26000	28863231
0.26067	28127386
0.26133	27408870
0.26200	26707336
0.26267	26022438
0.26333	25353835
0.26400	24701194
0.26467	24064191
0.26533	23442503
0.26600	22835816
0.26667	22243816
0.26733	21666197
0.26800	21102658
0.26867	20552904
0.26933	20016644
0.27000	19493596
0.27067	18983478
0.27133	18486016
0.27200	18000939
0.27267	17527982
0.27333	17066885
0.27400	16617393
0.27467	16179254
0.27533	15752221
0.27600	15336051
0.27667	14930504
0.27733	14535349
0.27800	14150354
0.27867	13775297
0.27933	13409955
0.28000	13054112
0.28067	12707557
0.28133	12370080
0.28200	12041478
0.28267	11721551
0.28333	11410106
0.28400	11106949
0.28467	10811894
0.28533	10524760
0.28600	10245370
0.28667	9973553
0.28733	9709141
0.28800	9451972
0.28867	9201888
0.28933	8958740
0.29000	8722378
0.29067	8492663
0.29133	8269455
0.29200	8052618
0.29267	7842022
0.29333	7637541
0.29400	7439052
0.29467	7246439
0.29533	7059591
0.29600	6878401
0.29667	6702768
0.29733	6532594
0.29800	6367785
0.29867	6208256
0.29933	6053930
0.30000	5904739
0.30067	5760625
0.30133	5621536
0.30200	5487433
0.30267	5358280
0.30333	5234038
0.30400	5114661
0.30467	5000105
0.30533	4890311
0.30600	4785212
0.30667	4684724
0.30733	4588753
0.30800	4497194
0.30867	4409933
0.30933	4326846
0.31000	4247799
0.31067	4172654
0.31133	4101272
0.31200	4033510
0.31267	3969223
0.31333	3908267
0.31400	3850496
0.31467	3795766
0.31533	3743937
0.31600	3694869
0.31667	3648426
0.31733	3604470
0.31800	3562868
0.31867	3523489
0.31933	3486204
0.32000	3450891
0.32067	3417431
0.32133	3385717
0.32200	3355645
0.32267	3327121
0.32333	3300057
0.32400	3274367
0.32467	3249971
0.32533	3226788
0.32600	3204735
0.32667	3183733
0.32733	3163699
0.32800	3144552
0.32867	3126215
0.32933	3108610
0.33000	3091660
0.33067	3075286
0.33133	3059411
0.33200	3043962
0.33267	3028864
0.33333	3014041
0.33400	2999409
0.33467	2984883
0.33533	2970369
0.33600	2955770
0.33667	2940986
0.33733	2925918
0.33800	2910469
0.33867	2894543
0.33933	2878050
0.34000	2860905
0.34067	2843027
0.34133	2824344
0.34200	2804790
0.34267	2784310
0.34333	2762860
0.34400	2740408
0.34467	2716936
0.34533	2692440
0.34600	2666929
0.34667	2640422
0.34733	2612952
0.34800	2584561
0.34867	2555299
0.34933	2525222
0.35000	2494391
0.35067	2462869
0.35133	2430720
0.35200	2398011
0.35267	2364806
0.35333	2331170
0.35400	2297165
0.35467	2262852
0.35533	2228291
0.35600	2193536
0.35667	2158642
0.35733	2123660
0.35800	2088639
0.35867	2053625
0.35933	2018661
0.36000	1983786
0.36067	1949040
0.36133	1914456
0.36200	1880068
0.36267	1845905
0.36333	1811995
0.36400	1778363
0.36467	1745032
0.36533	1712025
0.36600	1679360
0.36667	1647054
0.36733	1615124
0.36800	1583585
0.36867	1552448
0.36933	1521725
0.37000	1491425
0.37067	1461558
0.37133	1432131
0.37200	1403151
0.37267	1374625
0.37333	1346558
0.37400	1318954
0.37467	1291815
0.37533	1265146
0.37600	1238946
0.37667	1213216
0.37733	1187956
0.37800	1163164
0.37867	1138840
0.37933	1114980
0.38000	1091582
0.38067	1068643
0.38133	1046160
0.38200	1024128
0.38267	1002545
0.38333	981404
0.38400	960702
0.38467	940435
0.38533	920596
0.38600	901180
0.38667	882182
0.38733	863595
0.38800	845413
0.38867	827632
0.38933	810246
0.39000	793251
0.39067	776645
0.39133	760424
0.39200	744584
0.39267	729121
0.39333	714031
0.39400	699312
0.39467	684957
0.39533	670965
0.39600	657331
0.39667	644051
0.39733	631123
0.39800	618544
0.39867	606311
0.39933	594422
0.40000	582876
0.40067	571670
0.40133	560799
0.40200	550258
0.40267	540039
0.40333	530133
0.40400	520527
0.40467	511214
0.40533	502183
0.40600	493425
0.40667	484929
0.40733	476686
0.40800	468686
0.40867	460921
0.40933	453382
0.41000	446061
0.41067	438951
0.41133	432044
0.41200	425333
0.41267	418812
0.41333	412474
0.41400	406313
0.41467	400323
0.41533	394499
0.41600	388835
0.41667	383325
0.41733	377965
0.41800	372749
0.41867	367674
0.41933	362734
0.42000	357926
0.42067	353246
0.42133	348688
0.42200	344250
0.42267	339926
0.42333	335715
0.42400	331612
0.42467	327613
0.42533	323715
0.42600	319914
0.42667	316207
0.42733	312590
0.42800	309061
0.42867	305617
0.42933	302255
0.43000	298972
0.43067	295766
0.43133	292634
0.43200	289574
0.43267	286583
0.43333	283659
0.43400	280799
0.43467	278001
0.43533	275262
0.43600	272581
0.43667	269955
0.43733	267382
0.43800	264860
0.43867	262388
0.43933	259963
0.44000	257584
0.44067	255250
0.44133	252958
0.44200	250708
0.44267	248497
0.44333	246326
0.44400	244191
0.44467	242092
0.44533	240029
0.44600	237999
0.44667	236001
0.44733	234035
0.44800	232099
0.44867	230193
0.44933	228316
0.45000	226466
0.45067	224643
0.45133	222846
0.45200	221075
0.45267	219328
0.45333	217605
0.45400	215905
0.45467	214227
0.45533	212572
0.45600	210937
0.45667	209324
0.45733	207730
0.45800	206156
0.45867	204602
0.45933	203067
0.46000	201550
0.46067	200051
0.46133	198570
0.46200	197106
0.46267	195660
0.46333	194230
0.46400	192817
0.46467	191420
0.46533	190040
0.46600	188675
0.46667	187325
0.46733	185992
0.46800	184673
0.46867	183369
0.46933	182079
0.47000	180805
0.47067	179544
0.47133	178297
0.47200	177064
0.47267	175845
0.47333	174639
0.47400	173446
0.47467	172265
0.47533	171098
0.47600	169942
0.47667	168799
0.47733	167668
0.47800	166548
0.47867	165439
0.47933	164342
0.48000	163256
0.48067	162181
0.48133	161116
0.48200	160061
0.48267	159016
0.48333	157982
0.48400	156957
0.48467	155942
0.48533	154936
0.48600	153939
0.48667	152952
0.48733	151973
0.48800	151003
0.48867	150042
0.48933	149089
0.49000	148145
0.49067	147209
0.49133	146281
0.49200	145361
0.49267	144448
0.49333	143544
0.49400	142647
0.49467	141758
0.49533	140876
0.49600	140002
0.49667	139135
0.49733	138275
0.49800	137422
0.49867	136576
0.49933	135737
0.50000	134905
0.50067	134080
0.50133	133262
0.50200	132450
0.50267	131645
0.50333	130846
0.50400	130054
0.50467	129268
0.50533	128489
0.50600	127716
0.50667	126949
0.50733	126189
0.50800	125435
0.50867	124687
0.50933	123945
0.51000	123209
0.51067	122480
0.51133	121756
0.51200	121039
0.51267	120328
0.51333	119623
0.51400	118924
0.51467	118231
0.51533	117544
0.51600	116863
0.51667	116188
0.51733	115519
0.51800	114856
0.51867	114198
0.51933	113547
0.52000	112901
0.52067	112261
0.52133	111626
0.52200	110996
0.52267	110371
0.52333	109752
0.52400	109137
0.52467	108527
0.52533	107922
0.52600	107321
0.52667	106725
0.52733	106134
0.52800	105547
0.52867	104965
0.52933	104387
0.53000	103814
0.53067	103245
0.53133	102681
0.53200	102121
0.53267	101565
0.53333	101014
0.53400	100467
0.53467	99925
0.53533	99388
0.53600	98854
0.53667	98325
0.53733	97801
0.53800	97281
0.53867	96765
0.53933	96253
0.54000	95745
0.54067	95241
0.54133	94742
0.54200	94246
0.54267	93754
0.54333	93266
0.54400	92783
0.54467	92303
0.54533	91826
0.54600	91354
0.54667	90885
0.54733	90420
0.54800	89959
0.54867	89502
0.54933	89048
0.55000	88597
0.55067	88150
0.55133	87707
0.55200	87267
0.55267	86830
0.55333	86397
0.55400	85967
0.55467	85541
0.55533	85118
0.55600	84698
0.55667	84282
0.55733	83869
0.55800	83459
0.55867	83052
0.55933	82649
0.56000	82249
0.56067	81852
0.56133	81459
0.56200	81068
0.56267	80681
0.56333	80296
0.56400	79915
0.56467	79537
0.56533	79163
0.56600	78791
0.56667	78423
0.56733	78058
0.56800	77696
0.56867	77338
0.56933	76983
0.57000	76631
0.57067	76282
0.57133	75937
0.57200	75595
0.57267	75257
0.57333	74922
0.57400	74589
0.57467	74261
0.57533	73935
0.57600	73612
0.57667	73293
0.57733	72977
0.57800	72664
0.57867	72354
0.57933	72046
0.58000	71742
0.58067	71440
0.58133	71141
0.58200	70845
0.58267	70551
0.58333	70259
0.58400	69969
0.58467	69682
0.58533	69397
0.58600	69114
0.58667	68833
0.58733	68554
0.58800	68277
0.58867	68002
0.58933	67729
0.59000	67458
0.59067	67188
0.59133	66921
0.59200	66655
0.59267	66391
0.59333	66128
0.59400	65867
0.59467	65607
0.59533	65350
0.59600	65094
0.59667	64839
0.59733	64586
0.59800	64335
0.59867	64085
0.59933	63837
0.60000	63590
0.60067	63345
0.60133	63102
0.60200	62860
0.60267	62620
0.60333	62382
0.60400	62145
0.60467	61910
0.60533	61677
0.60600	61445
0.60667	61215
0.60733	60987
0.60800	60761
0.60867	60537
0.60933	60314
0.61000	60094
0.61067	59876
0.61133	59659
0.61200	59444
0.61267	59232
0.61333	59022
0.61400	58813
0.61467	58607
0.61533	58403
0.61600	58201
0.61667	58002
0.61733	57805
0.61800	57611
0.61867	57421
0.61933	57234
0.62000	57051
0.62067	56874
0.62133	56702
0.62200	56537
0.62267	56379
0.62333	56230
0.62400	56092
0.62467	55964
0.62533	55850
0.62600	55749
0.62667	55664
0.62733	55596
0.62800	55545
0.62867	55512
0.62933	55498
0.63000	55504
0.63067	55528
0.63133	55570
0.63200	55630
0.63267	55706
0.63333	55796
0.63400	55900
0.63467	56014
0.63533	56136
0.63600	56265
0.63667	56397
0.63733	56530
0.63800	56662
0.63867	56789
0.63933	56911
0.64000	57025
0.64067	57129
0.64133	57222
0.64200	57302
0.64267	57369
0.64333	57422
0.64400	57461
0.64467	57484
0.64533	57492
0.64600	57485
0.64667	57464
0.64733	57427
0.64800	57377
0.64867	57312
0.64933	57235
0.65000	57145
0.65067	57043
0.65133	56931
0.65200	56807
0.65267	56674
0.65333	56532
0.65400	56381
0.65467	56223
0.65533	56057
0.65600	55885
0.65667	55707
0.65733	55524
0.65800	55335
0.65867	55142
0.65933	54945
0.66000	54745
0.66067	54541
0.66133	54334
0.66200	54125
0.66267	53914
0.66333	53700
0.66400	53485
0.66467	53269
0.66533	53051
0.66600	52833
0.66667	52614
0.66733	52394
0.66800	52174
0.66867	51954
0.66933	51734
0.67000	51514
0.67067	51294
0.67133	51074
0.67200	50855
0.67267	50636
0.67333	50418
0.67400	50201
0.67467	49984
0.67533	49767
0.67600	49552
0.67667	49338
0.67733	49124
0.67800	48912
0.67867	48700
0.67933	48490
0.68000	48282
0.68067	48075
0.68133	47869
0.68200	47666
0.68267	47464
0.68333	47264
0.68400	47066
0.68467	46870
0.68533	46677
0.68600	46486
0.68667	46299
0.68733	46114
0.68800	45932
0.68867	45754
0.68933	45579
0.69000	45409
0.69067	45243
0.69133	45081
0.69200	44925
0.69267	44774
0.69333	44630
0.69400	44492
0.69467	44362
0.69533	44241
0.69600	44130
0.69667	44029
0.69733	43940
0.69800	43865
0.69867	43805
0.69933	43762
0.70000	43738
0.70067	43734
0.70133	43753
0.70200	43796
0.70267	43864
0.70333	43959
0.70400	44081
0.70467	44231
0.70533	44409
0.70600	44613
0.70667	44843
0.70733	45097
0.70800	45373
0.70867	45668
0.70933	45978
0.71000	46301
0.71067	46631
0.71133	46967
0.71200	47303
0.71267	47637
0.71333	47964
0.71400	48281
0.71467	48584
0.71533	48871
0.71600	49140
0.71667	49388
0.71733	49614
0.71800	49818
0.71867	49997
0.71933	50152
0.72000	50282
0.72067	50388
0.72133	50469
0.72200	50527
0.72267	50562
0.72333	50575
0.72400	50566
0.72467	50537
0.72533	50489
0.72600	50423
0.72667	50339
0.72733	50239
0.72800	50125
0.72867	49996
0.72933	49854
0.73000	49699
0.73067	49534
0.73133	49358
0.73200	49173
0.73267	48979
0.73333	48777
0.73400	48567
0.73467	48351
0.73533	48130
0.73600	47902
0.73667	47670
0.73733	47434
0.73800	47195
0.73867	46952
0.73933	46706
0.74000	46458
0.74067	46208
0.74133	45956
0.74200	45703
0.74267	45450
0.74333	45196
0.74400	44942
0.74467	44687
0.74533	44434
0.74600	44180
0.74667	43928
0.74733	43676
0.74800	43426
0.74867	43177
0.74933	42929
0.75000	42684
0.75067	42440
0.75133	42198
0.75200	41958
0.75267	41720
0.75333	41485
0.75400	41252
0.75467	41021
0.75533	40793
0.75600	40567
0.75667	40344
0.75733	40123
0.75800	39905
0.75867	39690
0.75933	39478
0.76000	39268
0.76067	39062
0.76133	38858
0.76200	38656
0.76267	38458
0.76333	38263
0.76400	38070
0.76467	37880
0.76533	37693
0.76600	37509
0.76667	37327
0.76733	37149
0.76800	36973
0.76867	36800
0.76933	36629
0.77000	36462
0.77067	36297
0.77133	36135
0.77200	35976
0.77267	35819
0.77333	35665
0.77400	35514
0.77467	35365
0.77533	35219
0.77600	35075
0.77667	34934
0.77733	34796
0.77800	34660
0.77867	34526
0.77933	34395
0.78000	34266
0.78067	34139
0.78133	34015
0.78200	33892
0.78267	33772
0.78333	33654
0.78400	33538
0.78467	33424
0.78533	33311
0.78600	33201
0.78667	33093
0.78733	32986
0.78800	32882
0.78867	32779
0.78933	32678
0.79000	32578
0.79067	32480
0.79133	32384
0.79200	32289
0.79267	32196
0.79333	32104
0.79400	32014
0.79467	31925
0.79533	31838
0.79600	31751
0.79667	31667
0.79733	31583
0.79800	31501
0.79867	31420
0.79933	31340
0.80000	31262
0.80067	31184
0.80133	31108
0.80200	31033
0.80267	30958
0.80333	30885
0.80400	30813
0.80467	30742
0.80533	30671
0.80600	30602
0.80667	30534
0.80733	30466
0.80800	30399
0.80867	30333
0.80933	30268
0.81000	30203
0.81067	30139
0.81133	30076
0.81200	30013
0.81267	29951
0.81333	29890
0.81400	29829
0.81467	29769
0.81533	29709
0.81600	29650
0.81667	29591
0.81733	29533
0.81800	29475
0.81867	29418
0.81933	29362
0.82000	29305
0.82067	29250
0.82133	29195
0.82200	29140
0.82267	29086
0.82333	29032
0.82400	28979
0.82467	28926
0.82533	28873
0.82600	28821
0.82667	28770
0.82733	28719
0.82800	28668
0.82867	28618
0.82933	28568
