[Header]
Application Name	LabSolutions
Version	5.73
Data File Name	C:\LabSolutions\Data\Project1\stephen\2016-01-04\92.gcd
Output Date	1/5/2016
Output Time	4:51:46 PM

[Configuration]
Instrument Name	WEISSTA-PC-Instrument1
Instrument #	1
Line #	1
# of Detectors	1
Detector ID	DET#2
Detector Name	DFID1
# of Channels	1

[Chromatogram (Ch1)]
Interval(msec)	40
# of Points	9599
Start Time(min)	0.001
End Time(min)	6.399
R.Time (min)	Intensity
0.00067	7
0.00133	7
0.00200	7
0.00267	7
0.00333	7
0.00400	8
0.00467	8
0.00533	8
0.00600	8
0.00667	9
0.00733	9
0.00800	9
0.00867	10
0.00933	10
0.01000	11
0.01067	11
0.01133	11
0.01200	12
0.01267	12
0.01333	12
0.01400	12
0.01467	12
0.01533	12
0.01600	12
0.01667	12
0.01733	12
0.01800	12
0.01867	11
0.01933	10
0.02000	10
0.02067	9
0.02133	8
0.02200	7
0.02267	6
0.02333	5
0.02400	3
0.02467	2
0.02533	1
0.02600	-1
0.02667	-2
0.02733	-4
0.02800	-5
0.02867	-7
0.02933	-8
0.03000	-10
0.03067	-11
0.03133	-13
0.03200	-14
0.03267	-15
0.03333	-17
0.03400	-18
0.03467	-19
0.03533	-20
0.03600	-21
0.03667	-23
0.03733	-24
0.03800	-25
0.03867	-26
0.03933	-27
0.04000	-28
0.04067	-28
0.04133	-29
0.04200	-30
0.04267	-30
0.04333	-31
0.04400	-32
0.04467	-32
0.04533	-33
0.04600	-33
0.04667	-33
0.04733	-34
0.04800	-34
0.04867	-35
0.04933	-35
0.05000	-35
0.05067	-36
0.05133	-36
0.05200	-36
0.05267	-37
0.05333	-37
0.05400	-37
0.05467	-38
0.05533	-38
0.05600	-38
0.05667	-38
0.05733	-39
0.05800	-39
0.05867	-39
0.05933	-39
0.06000	-39
0.06067	-39
0.06133	-40
0.06200	-40
0.06267	-40
0.06333	-40
0.06400	-40
0.06467	-40
0.06533	-40
0.06600	-41
0.06667	-41
0.06733	-41
0.06800	-41
0.06867	-41
0.06933	-41
0.07000	-41
0.07067	-41
0.07133	-41
0.07200	-42
0.07267	-42
0.07333	-42
0.07400	-42
0.07467	-42
0.07533	-42
0.07600	-42
0.07667	-42
0.07733	-42
0.07800	-42
0.07867	-42
0.07933	-42
0.08000	-43
0.08067	-43
0.08133	-43
0.08200	-43
0.08267	-43
0.08333	-43
0.08400	-43
0.08467	-43
0.08533	-42
0.08600	-36
0.08667	-28
0.08733	-9
0.08800	23
0.08867	68
0.08933	139
0.09000	237
0.09067	356
0.09133	529
0.09200	756
0.09267	1031
0.09333	1376
0.09400	1780
0.09467	2233
0.09533	2759
0.09600	3382
0.09667	4061
0.09733	4767
0.09800	5463
0.09867	6163
0.09933	6928
0.10000	7764
0.10067	8637
0.10133	9506
0.10200	10406
0.10267	11357
0.10333	12339
0.10400	13381
0.10467	14442
0.10533	15554
0.10600	16649
0.10667	17704
0.10733	18798
0.10800	19892
0.10867	20955
0.10933	21995
0.11000	23014
0.11067	24027
0.11133	25064
0.11200	26070
0.11267	27013
0.11333	27912
0.11400	28805
0.11467	29657
0.11533	30450
0.11600	31189
0.11667	31863
0.11733	32470
0.11800	33009
0.11867	33513
0.11933	33992
0.12000	34441
0.12067	34831
0.12133	35165
0.12200	35444
0.12267	35668
0.12333	35853
0.12400	36000
0.12467	36119
0.12533	36200
0.12600	36234
0.12667	36229
0.12733	36187
0.12800	36115
0.12867	36028
0.12933	35928
0.13000	35809
0.13067	35687
0.13133	35710
0.13200	36443
0.13267	39568
0.13333	49063
0.13400	73404
0.13467	127972
0.13533	238643
0.13600	440097
0.13667	773033
0.13733	1276899
0.13800	1987541
0.13867	2932606
0.13933	4132855
0.14000	5600876
0.14067	7343026
0.14133	9360384
0.14200	11650947
0.14267	14211074
0.14333	17035443
0.14400	20114919
0.14467	23433542
0.14533	26977369
0.14600	30748579
0.14667	34757286
0.14733	39002848
0.14800	43473781
0.14867	48151921
0.14933	53014264
0.15000	58035476
0.15067	63189787
0.15133	68452956
0.15200	73803066
0.15267	79220250
0.15333	84686379
0.15400	90185176
0.15467	95701623
0.15533	101222033
0.15600	106734049
0.15667	112225651
0.15733	117685577
0.15800	123103500
0.15867	128470055
0.15933	133776833
0.16000	139016554
0.16067	144182505
0.16133	149268408
0.16200	154267919
0.16267	159174896
0.16333	163983167
0.16400	168687002
0.16467	173280516
0.16533	177758248
0.16600	182115011
0.16667	186345887
0.16733	190446017
0.16800	194410790
0.16867	198235581
0.16933	201916104
0.17000	205448123
0.17067	208827590
0.17133	212050274
0.17200	215111993
0.17267	218008319
0.17333	220734435
0.17400	223285831
0.17467	225658077
0.17533	227847453
0.17600	229850676
0.17667	231665466
0.17733	233290255
0.17800	234724676
0.17867	235968805
0.17933	237023477
0.18000	237889931
0.18067	238570315
0.18133	239067178
0.18200	239383877
0.18267	239523875
0.18333	239491265
0.18400	239290414
0.18467	238926033
0.18533	238402947
0.18600	237726164
0.18667	236900708
0.18733	235931723
0.18800	234824401
0.18867	233584100
0.18933	232216364
0.19000	230726662
0.19067	229120559
0.19133	227403588
0.19200	225581450
0.19267	223659766
0.19333	221644218
0.19400	219540359
0.19467	217353807
0.19533	215089983
0.19600	212754233
0.19667	210351740
0.19733	207887653
0.19800	205366916
0.19867	202794417
0.19933	200174888
0.20000	197512991
0.20067	194813244
0.20133	192080076
0.20200	189317817
0.20267	186530734
0.20333	183723011
0.20400	180898719
0.20467	178061797
0.20533	175216008
0.20600	172364926
0.20667	169511910
0.20733	166660196
0.20800	163813007
0.20867	160973613
0.20933	158145043
0.21000	155329797
0.21067	152529758
0.21133	149746406
0.21200	146980940
0.21267	144234480
0.21333	141508095
0.21400	138802867
0.21467	136119870
0.21533	133460203
0.21600	130824936
0.21667	128215137
0.21733	125631836
0.21800	123076027
0.21867	120548646
0.21933	118050574
0.22000	115582638
0.22067	113145598
0.22133	110740151
0.22200	108366923
0.22267	106026477
0.22333	103719308
0.22400	101445855
0.22467	99206483
0.22533	97001512
0.22600	94831195
0.22667	92695732
0.22733	90595262
0.22800	88529890
0.22867	86499670
0.22933	84504615
0.23000	82544690
0.23067	80619823
0.23133	78729899
0.23200	76874781
0.23267	75054296
0.23333	73268244
0.23400	71516395
0.23467	69798499
0.23533	68114279
0.23600	66463437
0.23667	64845657
0.23733	63260606
0.23800	61707938
0.23867	60187286
0.23933	58698279
0.24000	57240529
0.24067	55813643
0.24133	54417216
0.24200	53050837
0.24267	51714088
0.24333	50406548
0.24400	49127787
0.24467	47877372
0.24533	46654866
0.24600	45459832
0.24667	44291833
0.24733	43150429
0.24800	42035178
0.24867	40945634
0.24933	39881357
0.25000	38841905
0.25067	37826841
0.25133	36835724
0.25200	35868122
0.25267	34923601
0.25333	34001734
0.25400	33102091
0.25467	32224251
0.25533	31367790
0.25600	30532294
0.25667	29717347
0.25733	28922542
0.25800	28147472
0.25867	27391736
0.25933	26654938
0.26000	25936688
0.26067	25236595
0.26133	24554279
0.26200	23889358
0.26267	23241462
0.26333	22610222
0.26400	21995278
0.26467	21396272
0.26533	20812851
0.26600	20244669
0.26667	19691382
0.26733	19152652
0.26800	18628148
0.26867	18117543
0.26933	17620516
0.27000	17136752
0.27067	16665940
0.27133	16207775
0.27200	15761959
0.27267	15328196
0.27333	14906198
0.27400	14495683
0.27467	14096373
0.27533	13707994
0.27600	13330279
0.27667	12962966
0.27733	12605799
0.27800	12258529
0.27867	11920910
0.27933	11592702
0.28000	11273669
0.28067	10963581
0.28133	10662215
0.28200	10369352
0.28267	10084778
0.28333	9808289
0.28400	9539681
0.28467	9278761
0.28533	9025338
0.28600	8779230
0.28667	8540259
0.28733	8308257
0.28800	8083059
0.28867	7864507
0.28933	7652453
0.29000	7446756
0.29067	7247287
0.29133	7053929
0.29200	6866574
0.29267	6685131
0.29333	6509526
0.29400	6339701
0.29467	6175612
0.29533	6017222
0.29600	5864506
0.29667	5717431
0.29733	5575967
0.29800	5440076
0.29867	5309715
0.29933	5184829
0.30000	5065356
0.30067	4951219
0.30133	4842334
0.30200	4738604
0.30267	4639922
0.30333	4546170
0.30400	4457228
0.30467	4372965
0.30533	4293244
0.30600	4217914
0.30667	4146818
0.30733	4079797
0.30800	4016691
0.30867	3957347
0.30933	3901610
0.31000	3849327
0.31067	3800351
0.31133	3754530
0.31200	3711715
0.31267	3671758
0.31333	3634516
0.31400	3599853
0.31467	3567628
0.31533	3537705
0.31600	3509948
0.31667	3484229
0.31733	3460424
0.31800	3438416
0.31867	3418087
0.31933	3399329
0.32000	3382036
0.32067	3366111
0.32133	3351465
0.32200	3338017
0.32267	3325692
0.32333	3314422
0.32400	3304140
0.32467	3294775
0.32533	3286259
0.32600	3278522
0.32667	3271488
0.32733	3265074
0.32800	3259188
0.32867	3253732
0.32933	3248608
0.33000	3243723
0.33067	3238983
0.33133	3234299
0.33200	3229576
0.33267	3224719
0.33333	3219624
0.33400	3214185
0.33467	3208283
0.33533	3201807
0.33600	3194639
0.33667	3186667
0.33733	3177778
0.33800	3167866
0.33867	3156831
0.33933	3144579
0.34000	3131025
0.34067	3116097
0.34133	3099733
0.34200	3081886
0.34267	3062525
0.34333	3041636
0.34400	3019222
0.34467	2995302
0.34533	2969913
0.34600	2943104
0.34667	2914936
0.34733	2885479
0.34800	2854808
0.34867	2823007
0.34933	2790160
0.35000	2756354
0.35067	2721676
0.35133	2686212
0.35200	2650047
0.35267	2613264
0.35333	2575944
0.35400	2538162
0.35467	2499995
0.35533	2461513
0.35600	2422784
0.35667	2383872
0.35733	2344837
0.35800	2305736
0.35867	2266623
0.35933	2227549
0.36000	2188560
0.36067	2149700
0.36133	2111009
0.36200	2072526
0.36267	2034284
0.36333	1996317
0.36400	1958653
0.36467	1921319
0.36533	1884341
0.36600	1847741
0.36667	1811538
0.36733	1775753
0.36800	1740400
0.36867	1705496
0.36933	1671052
0.37000	1637082
0.37067	1603595
0.37133	1570600
0.37200	1538107
0.37267	1506121
0.37333	1474649
0.37400	1443697
0.37467	1413267
0.37533	1383362
0.37600	1353984
0.37667	1325134
0.37733	1296811
0.37800	1269013
0.37867	1241741
0.37933	1214992
0.38000	1188762
0.38067	1163049
0.38133	1137849
0.38200	1113158
0.38267	1088972
0.38333	1065286
0.38400	1042094
0.38467	1019393
0.38533	997176
0.38600	975439
0.38667	954174
0.38733	933376
0.38800	913037
0.38867	893153
0.38933	873717
0.39000	854724
0.39067	836170
0.39133	818050
0.39200	800359
0.39267	783093
0.39333	766247
0.39400	749815
0.39467	733793
0.39533	718175
0.39600	702956
0.39667	688129
0.39733	673691
0.39800	659635
0.39867	645957
0.39933	632654
0.40000	619721
0.40067	607156
0.40133	594953
0.40200	583108
0.40267	571615
0.40333	560464
0.40400	549646
0.40467	539150
0.40533	528966
0.40600	519085
0.40667	509496
0.40733	500190
0.40800	491158
0.40867	482390
0.40933	473878
0.41000	465612
0.41067	457585
0.41133	449790
0.41200	442218
0.41267	434862
0.41333	427716
0.41400	420772
0.41467	414024
0.41533	407466
0.41600	401092
0.41667	394895
0.41733	388871
0.41800	383013
0.41867	377317
0.41933	371777
0.42000	366388
0.42067	361145
0.42133	356045
0.42200	351082
0.42267	346253
0.42333	341551
0.42400	336975
0.42467	332518
0.42533	328178
0.42600	323951
0.42667	319832
0.42733	315818
0.42800	311906
0.42867	308092
0.42933	304372
0.43000	300744
0.43067	297204
0.43133	293750
0.43200	290379
0.43267	287087
0.43333	283873
0.43400	280734
0.43467	277667
0.43533	274668
0.43600	271737
0.43667	268871
0.43733	266067
0.43800	263324
0.43867	260638
0.43933	258009
0.44000	255434
0.44067	252911
0.44133	250439
0.44200	248015
0.44267	245638
0.44333	243307
0.44400	241020
0.44467	238775
0.44533	236572
0.44600	234409
0.44667	232284
0.44733	230196
0.44800	228145
0.44867	226128
0.44933	224146
0.45000	222196
0.45067	220277
0.45133	218390
0.45200	216532
0.45267	214704
0.45333	212903
0.45400	211130
0.45467	209383
0.45533	207661
0.45600	205965
0.45667	204293
0.45733	202644
0.45800	201018
0.45867	199415
0.45933	197834
0.46000	196274
0.46067	194735
0.46133	193217
0.46200	191718
0.46267	190240
0.46333	188781
0.46400	187341
0.46467	185919
0.46533	184517
0.46600	183132
0.46667	181765
0.46733	180416
0.46800	179084
0.46867	177769
0.46933	176470
0.47000	175188
0.47067	173922
0.47133	172672
0.47200	171436
0.47267	170216
0.47333	169011
0.47400	167819
0.47467	166642
0.47533	165478
0.47600	164328
0.47667	163191
0.47733	162066
0.47800	160953
0.47867	159853
0.47933	158765
0.48000	157688
0.48067	156622
0.48133	155567
0.48200	154523
0.48267	153490
0.48333	152468
0.48400	151455
0.48467	150452
0.48533	149459
0.48600	148476
0.48667	147502
0.48733	146537
0.48800	145582
0.48867	144635
0.48933	143698
0.49000	142769
0.49067	141849
0.49133	140936
0.49200	140033
0.49267	139137
0.49333	138249
0.49400	137369
0.49467	136496
0.49533	135631
0.49600	134774
0.49667	133924
0.49733	133081
0.49800	132246
0.49867	131417
0.49933	130596
0.50000	129781
0.50067	128973
0.50133	128172
0.50200	127379
0.50267	126591
0.50333	125810
0.50400	125036
0.50467	124268
0.50533	123507
0.50600	122752
0.50667	122003
0.50733	121260
0.50800	120524
0.50867	119794
0.50933	119069
0.51000	118351
0.51067	117639
0.51133	116933
0.51200	116232
0.51267	115538
0.51333	114849
0.51400	114166
0.51467	113489
0.51533	112818
0.51600	112153
0.51667	111494
0.51733	110841
0.51800	110193
0.51867	109551
0.51933	108915
0.52000	108284
0.52067	107659
0.52133	107039
0.52200	106424
0.52267	105815
0.52333	105210
0.52400	104610
0.52467	104015
0.52533	103425
0.52600	102839
0.52667	102257
0.52733	101680
0.52800	101108
0.52867	100540
0.52933	99976
0.53000	99416
0.53067	98861
0.53133	98310
0.53200	97764
0.53267	97221
0.53333	96683
0.53400	96150
0.53467	95620
0.53533	95095
0.53600	94575
0.53667	94058
0.53733	93546
0.53800	93038
0.53867	92534
0.53933	92035
0.54000	91539
0.54067	91047
0.54133	90560
0.54200	90076
0.54267	89596
0.54333	89120
0.54400	88648
0.54467	88179
0.54533	87714
0.54600	87253
0.54667	86795
0.54733	86341
0.54800	85890
0.54867	85443
0.54933	85000
0.55000	84560
0.55067	84123
0.55133	83690
0.55200	83261
0.55267	82834
0.55333	82411
0.55400	81991
0.55467	81574
0.55533	81161
0.55600	80751
0.55667	80344
0.55733	79940
0.55800	79540
0.55867	79143
0.55933	78749
0.56000	78358
0.56067	77970
0.56133	77586
0.56200	77204
0.56267	76826
0.56333	76451
0.56400	76079
0.56467	75711
0.56533	75345
0.56600	74983
0.56667	74624
0.56733	74268
0.56800	73915
0.56867	73566
0.56933	73220
0.57000	72877
0.57067	72538
0.57133	72202
0.57200	71869
0.57267	71540
0.57333	71214
0.57400	70891
0.57467	70572
0.57533	70256
0.57600	69942
0.57667	69632
0.57733	69325
0.57800	69021
0.57867	68720
0.57933	68421
0.58000	68125
0.58067	67831
0.58133	67540
0.58200	67252
0.58267	66965
0.58333	66681
0.58400	66400
0.58467	66120
0.58533	65843
0.58600	65568
0.58667	65294
0.58733	65023
0.58800	64754
0.58867	64486
0.58933	64221
0.59000	63957
0.59067	63694
0.59133	63434
0.59200	63175
0.59267	62918
0.59333	62662
0.59400	62408
0.59467	62156
0.59533	61905
0.59600	61656
0.59667	61409
0.59733	61163
0.59800	60919
0.59867	60677
0.59933	60436
0.60000	60196
0.60067	59959
0.60133	59723
0.60200	59488
0.60267	59255
0.60333	59024
0.60400	58795
0.60467	58567
0.60533	58342
0.60600	58118
0.60667	57895
0.60733	57675
0.60800	57456
0.60867	57239
0.60933	57024
0.61000	56811
0.61067	56600
0.61133	56391
0.61200	56183
0.61267	55978
0.61333	55775
0.61400	55574
0.61467	55375
0.61533	55179
0.61600	54985
0.61667	54793
0.61733	54605
0.61800	54419
0.61867	54238
0.61933	54061
0.62000	53888
0.62067	53721
0.62133	53561
0.62200	53408
0.62267	53264
0.62333	53130
0.62400	53007
0.62467	52897
0.62533	52801
0.62600	52721
0.62667	52656
0.62733	52609
0.62800	52581
0.62867	52570
0.62933	52579
0.63000	52606
0.63067	52652
0.63133	52715
0.63200	52795
0.63267	52890
0.63333	52998
0.63400	53117
0.63467	53245
0.63533	53380
0.63600	53519
0.63667	53659
0.63733	53798
0.63800	53934
0.63867	54065
0.63933	54188
0.64000	54302
0.64067	54406
0.64133	54497
0.64200	54575
0.64267	54640
0.64333	54690
0.64400	54725
0.64467	54744
0.64533	54749
0.64600	54739
0.64667	54713
0.64733	54673
0.64800	54619
0.64867	54552
0.64933	54471
0.65000	54379
0.65067	54274
0.65133	54159
0.65200	54033
0.65267	53898
0.65333	53754
0.65400	53601
0.65467	53441
0.65533	53274
0.65600	53100
0.65667	52921
0.65733	52735
0.65800	52545
0.65867	52351
0.65933	52153
0.66000	51951
0.66067	51747
0.66133	51540
0.66200	51330
0.66267	51119
0.66333	50905
0.66400	50691
0.66467	50475
0.66533	50258
0.66600	50040
0.66667	49822
0.66733	49603
0.66800	49384
0.66867	49165
0.66933	48946
0.67000	48726
0.67067	48507
0.67133	48289
0.67200	48070
0.67267	47852
0.67333	47635
0.67400	47418
0.67467	47202
0.67533	46986
0.67600	46772
0.67667	46558
0.67733	46346
0.67800	46134
0.67867	45924
0.67933	45715
0.68000	45508
0.68067	45302
0.68133	45098
0.68200	44896
0.68267	44695
0.68333	44497
0.68400	44301
0.68467	44108
0.68533	43917
0.68600	43729
0.68667	43544
0.68733	43363
0.68800	43185
0.68867	43011
0.68933	42842
0.69000	42677
0.69067	42518
0.69133	42364
0.69200	42216
0.69267	42075
0.69333	41941
0.69400	41815
0.69467	41699
0.69533	41592
0.69600	41498
0.69667	41416
0.69733	41348
0.69800	41297
0.69867	41264
0.69933	41250
0.70000	41258
0.70067	41290
0.70133	41347
0.70200	41431
0.70267	41541
0.70333	41679
0.70400	41845
0.70467	42038
0.70533	42259
0.70600	42504
0.70667	42774
0.70733	43065
0.70800	43375
0.70867	43701
0.70933	44038
0.71000	44385
0.71067	44735
0.71133	45086
0.71200	45433
0.71267	45771
0.71333	46099
0.71400	46412
0.71467	46708
0.71533	46985
0.71600	47241
0.71667	47474
0.71733	47683
0.71800	47867
0.71867	48027
0.71933	48161
0.72000	48271
0.72067	48355
0.72133	48416
0.72200	48453
0.72267	48467
0.72333	48460
0.72400	48432
0.72467	48385
0.72533	48318
0.72600	48235
0.72667	48135
0.72733	48019
0.72800	47889
0.72867	47746
0.72933	47590
0.73000	47423
0.73067	47246
0.73133	47058
0.73200	46862
0.73267	46657
0.73333	46446
0.73400	46227
0.73467	46002
0.73533	45773
0.73600	45538
0.73667	45299
0.73733	45056
0.73800	44810
0.73867	44561
0.73933	44309
0.74000	44056
0.74067	43801
0.74133	43545
0.74200	43288
0.74267	43031
0.74333	42774
0.74400	42516
0.74467	42259
0.74533	42003
0.74600	41747
0.74667	41493
0.74733	41240
0.74800	40988
0.74867	40738
0.74933	40490
0.75000	40243
0.75067	39999
0.75133	39757
0.75200	39517
0.75267	39279
0.75333	39044
0.75400	38812
0.75467	38582
0.75533	38354
0.75600	38130
0.75667	37908
0.75733	37688
0.75800	37472
0.75867	37258
0.75933	37047
0.76000	36839
0.76067	36634
0.76133	36431
0.76200	36232
0.76267	36035
0.76333	35842
0.76400	35651
0.76467	35463
0.76533	35278
0.76600	35095
0.76667	34916
0.76733	34739
0.76800	34566
0.76867	34395
0.76933	34227
0.77000	34061
0.77067	33899
0.77133	33739
0.77200	33582
0.77267	33427
0.77333	33276
0.77400	33127
0.77467	32980
0.77533	32837
0.77600	32695
0.77667	32557
0.77733	32421
0.77800	32287
0.77867	32156
0.77933	32027
0.78000	31900
0.78067	31776
0.78133	31654
0.78200	31534
0.78267	31416
0.78333	31301
0.78400	31187
0.78467	31075
0.78533	30966
0.78600	30858
0.78667	30752
0.78733	30648
0.78800	30546
0.78867	30445
0.78933	30346
0.79000	30249
0.79067	30154
0.79133	30060
0.79200	29967
0.79267	29876
0.79333	29787
0.79400	29699
0.79467	29612
0.79533	29527
0.79600	29443
0.79667	29360
0.79733	29279
0.79800	29199
0.79867	29120
0.79933	29042
0.80000	28966
0.80067	28891
0.80133	28816
0.80200	28743
0.80267	28671
0.80333	28600
0.80400	28530
0.80467	28461
0.80533	28392
0.80600	28325
0.80667	28258
0.80733	28193
0.80800	28128
0.80867	28064
0.80933	28000
0.81000	27938
0.81067	27876
0.81133	27815
0.81200	27754
0.81267	27694
0.81333	27635
0.81400	27576
0.81467	27518
0.81533	27460
0.81600	27403
0.81667	27347
0.81733	27290
0.81800	27235
0.81867	27180
0.81933	27125
0.82000	27070
0.82067	27016
0.82133	26963
0.82200	26910
0.82267	26857
0.82333	26805
0.82400	26753
0.82467	26702
0.82533	26651
0.82600	26600
0.82667	26550
0.82733	26500
